type,latency,P7,P4,Cz,Pz,P3,P8,O1,O2,FC6,F8,C4,F4,AF4,Fz,C3,F3,AF3,FC5,F7
0,1,3.675538,-7.707047,-2.266018,0.660879,-4.745546,-8.031683,-5.051391,-8.222294,-6.337727,-6.880339,-4.452716,-1.393352,-9.940029,-1.491838,-1.458204,-9.840483,-2.784478,-5.278014,-1.909207
0,2,0.7943484,-5.366,-0.4535703,-5.841529,-9.866053,-6.782774,-2.988146,-6.245856,-8.037629,-7.308744,-4.425169,0.3925171,-7.874867,-0.8463361,-5.99811,-6.185312,1.851082,-10.80291,-1.038593
0,3,4.44628,2.369894,5.802729,-4.062295,-9.088991,0.09113837,4.043866,1.227716,-3.998312,-2.463422,0.9017671,5.557214,-1.318893,2.908208,-5.396729,1.624042,10.55507,-8.551841,1.813593
0,4,8.491415,8.763519,9.423255,-0.290558,-7.390198,6.440399,9.885962,8.515411,0.3060419,2.133856,5.34366,9.130913,5.004273,5.821315,-3.225176,4.889116,13.32972,-7.132376,1.035369
0,5,12.3493,10.45122,11.88089,6.399306,-3.033656,9.029255,11.88698,11.24947,3.49841,4.456448,8.109246,9.607827,6.060997,7.650274,1.12224,4.813427,11.30834,-3.379829,0.6276547
0,6,12.21968,5.552039,7.503841,8.94451,-1.221191,4.441835,6.561888,5.245319,0.2714682,0.8366631,4.808505,4.058962,0.5257597,3.609177,3.197881,-0.5066289,1.341991,-2.282599,-5.064567
0,7,5.409911,-3.959173,0.9556349,9.585984,-1.437271,-4.198241,-3.800615,-4.793564,-5.572024,-5.490524,-1.157139,-2.647157,-8.860387,-2.417305,2.081964,-9.947804,-10.2188,-2.963227,-10.06683
0,8,3.1737,-7.179767,-0.9912934,9.435942,-1.713493,-7.113086,-6.348531,-8.174167,-7.646216,-7.902744,-3.096929,-4.723462,-13.10938,-2.72855,2.363544,-11.32846,-11.27537,-3.607089,-9.557237
0,9,4.54496,-3.238965,2.191227,6.904444,-1.992115,-3.658648,-2.028558,-3.373124,-7.454947,-6.775239,-1.439994,-2.131745,-10.59125,0.6270975,2.114369,-6.56295,-4.212499,-3.961411,-5.087303
0,10,-4.149226,-8.534754,-2.054107,-5.332582,-11.1328,-9.498652,-6.440916,-8.334842,-15.76686,-13.37692,-7.868357,-4.865279,-15.37869,-4.658133,-7.067026,-9.825353,-5.303625,-13.07188,-8.128308
0,11,-7.206782,-7.710782,-1.744458,-8.905362,-13.62051,-9.529132,-6.769387,-8.833303,-16.88608,-13.32439,-7.935524,-3.532021,-13.78224,-3.559841,-7.962368,-7.495621,-1.975254,-17.53945,-8.310431
0,12,-5.755929,-4.763762,1.461071,-7.7921,-11.82255,-7.06676,-4.795227,-7.126916,-14.94303,-10.60531,-5.118295,-0.8273101,-9.837271,-0.1619148,-6.101758,-4.843161,0.9084253,-16.72651,-8.927895
0,13,-10.01282,-12.19702,-4.208547,-8.461529,-13.71425,-13.51098,-11.62384,-14.29905,-20.04886,-15.33235,-10.24669,-5.527162,-15.90785,-5.94194,-7.495559,-11.25733,-7.044401,-18.13969,-15.95889
0,14,-20.6946,-27.32318,-16.77523,-12.20371,-18.84494,-27.12926,-26.54949,-28.6506,-32.20148,-26.31615,-21.91271,-15.62887,-28.59306,-16.8313,-11.50453,-24.87316,-23.52212,-23.40655,-27.08578
0,15,-17.53167,-27.62317,-13.97121,-4.393718,-10.37583,-26.62442,-27.89516,-29.34691,-28.89214,-23.59559,-19.41833,-15.40887,-27.57361,-13.57092,-3.458755,-23.64453,-25.07097,-14.80954,-22.14796
0,16,-13.54727,-27.2163,-11.36647,-1.878475,-5.206944,-25.65996,-27.4424,-28.07395,-27.01458,-22.18816,-17.97705,-14.75261,-26.67424,-9.845201,-1.039413,-21.62487,-23.09577,-9.892895,-16.37331
0,17,-17.81595,-31.03561,-13.42787,-6.907291,-8.219043,-29.75748,-30.44907,-32.22817,-31.18807,-25.1824,-21.43057,-15.87884,-28.76102,-10.43218,-4.696406,-20.81435,-21.62959,-11.74138,-13.28303
0,18,-19.46324,-31.1901,-11.21972,-13.01923,-10.63119,-30.15182,-29.27038,-32.70697,-31.80282,-24.71422,-21.6005,-13.5211,-26.96859,-8.740708,-5.979805,-14.72618,-13.53284,-12.72307,-8.833197
0,19,-6.20738,-13.07692,4.812922,-5.898612,-0.4359031,-13.49724,-11.25233,-15.44794,-17.792,-9.938194,-7.062164,0.259087,-8.43094,7.086962,3.840652,2.99753,7.658056,-4.414746,4.982443
0,20,-0.6617053,-4.820467,11.93183,-4.949862,1.910024,-4.917661,-1.673427,-5.313573,-11.08834,-3.437125,-0.8578328,5.814239,-0.04983179,12.85829,6.281602,11.14905,16.10117,-0.3597125,9.747401
0,21,-5.201316,-7.300262,8.91773,-7.653415,-1.811231,-7.713386,-5.665735,-8.386602,-14.1076,-6.013756,-3.524697,3.770786,-2.128183,7.272143,2.42124,6.462527,10.66322,-2.206325,4.427531
0,22,-17.68523,-22.01331,-5.858006,-14.4153,-11.75066,-21.52926,-21.43304,-22.74949,-26.63439,-18.07928,-16.1918,-7.432967,-15.47237,-6.869433,-7.105146,-8.260612,-7.607838,-11.59988,-10.10407
0,23,-21.41379,-32.13911,-13.85146,-14.36968,-11.91688,-30.60888,-32.01782,-33.14035,-31.99992,-23.69096,-22.86827,-13.89793,-22.72542,-12.24213,-7.288352,-16.66908,-18.77181,-12.93576,-14.9546
0,24,-12.89345,-28.86463,-9.150635,-8.40141,-3.482888,-26.74055,-28.03922,-29.65345,-26.16245,-18.5481,-18.42629,-11.17148,-17.53172,-5.236469,0.9580064,-11.72616,-15.31585,-7.929082,-9.237287
0,25,-3.266807,-19.02235,0.9000542,-4.570267,2.687682,-17.18641,-16.94534,-18.6005,-18.13546,-11.25576,-10.57019,-4.51296,-9.627186,2.6484,6.583805,-1.335744,-3.242134,-2.252951,2.131878
0,26,2.504118,-10.64752,8.192368,-4.535206,4.816909,-9.481813,-7.540803,-9.500278,-12.65396,-5.260035,-4.866416,1.784263,-0.9783444,8.792726,6.360877,8.532419,8.464263,0.5462753,10.04428
0,27,3.727245,-7.546238,9.416037,-7.313388,1.179197,-7.401635,-3.576629,-6.7292,-12.89287,-4.353074,-4.282966,3.71364,2.478111,9.483672,3.818089,13.74287,13.0449,-1.237265,12.04375
0,28,6.308588,-0.7603076,14.69681,-4.950373,4.18891,-1.774713,1.655786,-1.922555,-7.62377,0.9655221,1.099168,7.926541,9.028677,13.5682,6.894627,19.71547,18.50341,0.1489988,14.90991
0,29,-2.117823,-10.36914,5.421342,-10.16843,-1.458963,-10.50072,-8.179395,-10.67933,-15.85344,-6.847971,-6.992006,1.537942,0.04409345,4.842119,0.3952185,8.901114,8.742329,-7.23706,4.510869
0,30,-8.755443,-17.33657,-2.950273,-11.38523,-3.352443,-17.53341,-16.63316,-18.54129,-23.51077,-13.65283,-13.44197,-4.927091,-8.015866,-2.329226,-3.695173,-1.237298,-1.915462,-9.256892,-4.527623
0,31,-5.039528,-16.18987,-1.58096,-3.446213,4.750063,-15.73751,-14.97236,-17.65554,-19.47132,-10.14044,-10.69811,-4.091758,-5.542562,-0.4808291,3.050196,-2.283237,-4.058115,-3.071292,-3.746689
0,32,-10.2292,-25.09248,-8.794145,-6.038603,2.856858,-23.46212,-23.26802,-25.54547,-26.64844,-17.23589,-17.61996,-11.30847,-14.36852,-6.77919,-0.8374327,-10.64153,-14.70654,-5.361336,-11.06148
0,33,-15.56159,-30.98442,-14.56503,-11.22834,-0.8095194,-29.03026,-29.87756,-31.69861,-31.44511,-22.51287,-22.61376,-16.05058,-21.46974,-11.2646,-4.515729,-15.63989,-19.19567,-8.846832,-15.90605
0,34,-14.099,-29.21903,-11.97207,-12.24712,-0.07263272,-27.39977,-27.16504,-29.91004,-29.95471,-20.56874,-20.96976,-12.99563,-18.87306,-8.523653,-3.816391,-12.48357,-12.94361,-7.706044,-12.53167
0,35,-13.79096,-25.31766,-9.095441,-14.76551,-2.486427,-24.11957,-23.88485,-25.71128,-27.46072,-18.33789,-18.62818,-9.308117,-15.65586,-6.895024,-7.02065,-9.0138,-5.815382,-9.7179,-9.096845
0,36,-11.38552,-20.12191,-5.136379,-15.29781,-4.124633,-20.15508,-19.72165,-22.09904,-22.94428,-15.36306,-14.66011,-6.357345,-12.77582,-4.671681,-10.07383,-4.926428,-0.7257122,-12.4841,-7.466641
0,37,-3.61774,-11.67094,0.6027089,-10.5624,0.8775453,-12.57616,-12.72224,-14.48519,-15.72203,-8.0428,-8.208863,-0.6906326,-3.030519,0.6208819,-5.1391,1.629116,5.640511,-9.949206,-3.674311
0,38,1.123029,-8.572521,3.078826,-5.183027,3.722027,-8.925486,-7.866465,-10.55002,-11.69371,-4.371296,-5.164502,0.9197446,1.109818,1.954916,-0.5438578,3.708321,4.628503,-5.644638,-3.290436
0,39,10.91458,-0.08106824,8.88603,5.388341,12.26366,-0.680507,0.3427323,-3.045197,-1.338574,3.465014,2.840174,4.215705,7.720788,7.727118,7.790123,8.086115,5.655476,3.781798,1.517975
0,40,7.601832,-6.051492,2.870056,4.54563,10.01168,-5.910604,-6.90532,-8.308238,-5.854642,-1.72515,-2.12404,-1.636832,0.5438135,1.245108,5.574584,1.680539,-3.190059,2.464042,-3.86561
0,41,12.83765,-1.445786,5.259981,6.187249,13.55193,-2.135527,-2.945612,-4.962094,-1.528254,1.076418,1.241643,-0.1138057,2.341946,4.869841,9.219711,4.011021,0.09699215,6.715427,0.7279722
0,42,0.09067778,-13.32072,-8.610674,-10.15028,-2.260637,-14.76625,-15.07029,-17.46551,-14.51218,-11.70039,-11.51134,-9.208445,-10.32676,-7.693816,-6.384051,-7.441491,-10.01055,-10.36554,-10.82086
0,43,-13.50315,-22.87443,-17.24577,-20.22636,-14.90665,-24.22929,-23.80559,-26.00169,-25.62311,-21.17253,-20.88258,-14.63126,-19.08038,-16.11069,-19.18711,-14.05126,-15.71722,-22.90684,-17.3473
0,44,-10.34237,-15.13907,-12.22687,-20.2979,-12.81982,-18.00712,-16.44871,-20.09936,-20.4911,-15.90978,-15.73433,-9.954165,-11.93617,-10.65978,-17.83735,-6.408813,-7.419941,-20.99484,-11.59927
0,45,-0.6216375,-4.098429,-2.411182,-9.961631,-6.148129,-7.499611,-6.284552,-10.15261,-8.53703,-4.990857,-5.021285,-1.135336,-0.1911823,-0.08406164,-10.98066,4.040439,3.513753,-14.48015,-4.24025
0,46,-6.406819,-10.34247,-7.699366,-12.05421,-10.92977,-13.30779,-14.15269,-16.54691,-12.72085,-9.580516,-9.250856,-4.319844,-6.206492,-4.645114,-15.43002,-4.264801,-3.055029,-19.62565,-11.62683
0,47,-1.288333,-7.536653,-3.71578,-2.92814,-4.200681,-8.790995,-10.38319,-11.26915,-7.488537,-4.51633,-4.872635,-1.179444,-1.313255,0.004568089,-7.760521,-2.774341,-2.276783,-14.13141,-10.09888
0,48,-4.20844,-12.10744,-7.348523,-1.0894,-5.652822,-13.15752,-16.35385,-17.24108,-9.341768,-7.570674,-7.121737,-5.000735,-6.939741,-3.474761,-9.741858,-8.341153,-9.698884,-15.74759,-16.48823
0,49,-8.220728,-18.49202,-12.19034,-2.644991,-8.915364,-18.92371,-24.01772,-23.20614,-13.18432,-12.42646,-11.43121,-9.251068,-13.45572,-6.319785,-11.3012,-16.14747,-18.00377,-20.31234,-20.00095
0,50,-7.208525,-16.55719,-11.0803,-1.549359,-8.354074,-18.3771,-23.33649,-23.68036,-12.43064,-11.32277,-10.37012,-8.362005,-11.76571,-6.37197,-9.549883,-13.18052,-16.39589,-20.51259,-17.15337
0,51,-8.221143,-13.52885,-8.531073,-2.156318,-7.782473,-16.2489,-20.44034,-21.9591,-11.78988,-9.174685,-8.438765,-5.382696,-7.944704,-2.983952,-8.754348,-7.990743,-10.1333,-20.7943,-14.00231
0,52,-6.099848,-7.35776,-2.311264,-4.067881,-7.918581,-10.2005,-14.43013,-14.87748,-7.88159,-4.655969,-3.779182,0.02413099,-1.091817,3.223022,-9.229733,-1.177816,-1.238592,-19.51653,-10.43837
0,53,-4.735692,-3.059554,1.763702,-4.715179,-10.19503,-6.652719,-11.2852,-11.24745,-5.874947,-1.765119,-0.6374639,4.014965,4.093726,5.389016,-10.23072,2.399707,3.011536,-22.06811,-12.08402
0,54,-7.322223,-5.309738,-1.321309,-7.340073,-15.27679,-9.220066,-13.52898,-14.45079,-7.936997,-3.99951,-2.7473,2.277239,2.098835,2.195341,-13.80356,-1.590315,-1.80862,-26.32937,-18.76626
0,55,-2.380835,-0.4864104,4.031724,1.70611,-8.763754,-3.108524,-9.270645,-8.206061,-0.1061582,2.862244,3.50243,6.695078,8.405643,6.994792,-6.220587,1.205096,0.5989676,-19.16943,-16.53828
0,56,-3.073778,-3.971939,2.130842,3.623238,-6.675777,-5.294385,-13.05032,-10.57702,-0.3367204,1.635749,2.231147,4.155041,5.539025,6.579113,-4.983308,-2.876952,-4.824825,-17.91079,-18.75914
0,57,-6.800725,-9.282993,-1.438528,3.042656,-7.672852,-10.7772,-17.75613,-17.1484,-4.754558,-2.218317,-1.524062,1.021299,0.8424174,3.296633,-5.840631,-7.686772,-10.37598,-17.32502,-20.46488
0,58,-12.93637,-13.23439,-6.828324,-2.362991,-12.50267,-15.4292,-23.89131,-22.6426,-8.67416,-6.966612,-5.605479,-3.028079,-5.495968,0.6661621,-10.46899,-10.89019,-13.16885,-20.64182,-21.34214
0,59,-15.25659,-14.6413,-7.723117,-5.918665,-15.08648,-17.11053,-25.49216,-24.77839,-10.02987,-7.764771,-6.774063,-2.457703,-5.911953,1.27991,-11.70185,-9.418741,-9.827214,-21.9051,-20.21526
0,60,-3.536414,-0.2649152,7.914403,0.856134,-6.237139,-3.766327,-10.38808,-10.41432,-0.9137816,3.502973,4.919394,8.753659,9.607507,15.50013,-1.778684,6.862668,6.444924,-12.99704,-7.094739
0,61,5.640142,10.38001,17.5548,1.737133,-3.143614,6.630975,2.80693,2.459449,6.26963,10.84076,12.09772,15.5993,20.10644,22.35116,2.178473,17.62183,16.92624,-10.30317,1.891572
0,62,-4.752151,0.7824862,7.902371,-9.133298,-14.61929,-2.968623,-6.276676,-6.694418,-5.630733,0.6839307,2.142217,8.612643,10.80325,12.81523,-8.13183,8.784245,7.588186,-19.7299,-8.789594
0,63,-5.447206,-1.201228,6.675015,-5.974595,-13.53925,-4.285388,-8.492005,-8.088167,-6.712116,0.1267205,1.260538,7.799315,9.701828,11.02249,-6.712475,7.134165,5.353331,-18.75353,-11.05841
0,64,-4.180229,-2.024637,6.703448,-2.569176,-10.21686,-4.800732,-11.72697,-9.240769,-6.651453,0.5003394,1.572267,7.6712,9.48455,11.23233,-1.772506,4.916974,3.055781,-13.80578,-11.5634
0,65,-8.760914,-9.582496,0.08259282,-3.545713,-9.859766,-12.11426,-18.57674,-17.65996,-13.22223,-5.5761,-4.417577,1.409694,1.664059,5.938792,-2.493757,-2.656091,-6.251682,-12.99651,-15.79687
0,66,-5.80326,-8.933678,2.961982,2.206834,-3.688281,-11.0223,-17.04003,-17.04554,-10.36862,-2.870358,-1.97029,3.383254,3.5146,9.869809,2.817697,-1.484062,-4.380248,-6.60147,-10.24205
0,67,-1.849162,-7.702544,7.59084,3.582177,0.5153184,-8.875142,-14.56821,-14.49625,-7.430522,0.00967646,0.4644085,5.841584,6.210417,13.54118,7.128772,4.35525,1.60665,-2.71932,-4.106301
0,68,15.56002,11.52878,25.54181,13.09794,15.95205,9.965249,7.010757,5.941873,9.061451,16.42583,16.21657,18.9597,25.69699,31.5414,19.98397,25.85993,23.73356,11.14506,15.69934
0,69,18.7933,18.25625,28.78835,9.636441,14.68651,15.47548,14.11736,13.31212,9.952149,18.57122,18.45516,22.02331,31.18787,33.6553,17.54881,31.61796,30.29725,9.791358,18.99801
0,70,12.17707,12.70111,19.79704,0.8772319,5.373546,9.036753,7.566895,7.19277,1.376261,11.26496,10.7791,16.94656,24.91583,23.93934,8.315467,25.23558,24.80153,1.833716,10.28015
0,71,8.838202,7.610505,15.99426,1.114774,5.907621,5.458075,4.640937,4.090614,-2.181428,8.33588,7.170081,13.67722,21.27627,19.92399,7.87279,20.32203,19.02579,2.014652,5.656005
0,72,12.08133,9.468431,17.62111,7.47727,11.62063,8.563053,6.762913,6.97946,2.928765,11.84387,10.36721,14.14226,22.96776,22.31307,14.11212,20.18661,17.1321,8.724355,6.474636
0,73,12.9572,7.304368,15.02373,9.62248,13.75526,6.577475,4.734196,3.963143,2.886295,10.63433,9.123304,10.82889,19.81634,20.03393,15.5068,17.93298,11.98087,12.04302,5.243228
0,74,-4.804421,-13.85029,-3.823798,-4.768884,-0.1643566,-13.61948,-15.84201,-15.9482,-16.37025,-7.814836,-9.655851,-3.834759,-0.9160767,0.5205916,2.227257,-1.862734,-8.087637,0.1718548,-6.998559
0,75,-9.148606,-20.11681,-6.786391,-7.329184,-2.750911,-18.55963,-21.01167,-20.45858,-19.77825,-11.17559,-13.47047,-5.77591,-5.235953,-1.436541,-0.162376,-5.205225,-9.948181,-1.19238,-7.227439
0,76,-7.199048,-17.61204,-1.71782,-7.896254,-0.8137705,-16.64099,-19.06992,-18.75582,-17.89467,-9.345492,-10.74597,-2.913097,-3.412626,2.824677,0.9579721,-0.6497699,-3.522882,-1.183832,-1.575103
0,77,-8.883615,-18.20233,-2.358089,-13.90403,-3.957757,-17.7578,-18.93052,-19.58658,-20.38499,-11.10095,-12.51879,-3.410127,-3.851027,1.893052,-2.249771,0.5040731,-1.901959,-5.835937,-2.163835
0,78,-8.381666,-15.77733,0.03122613,-13.61756,-3.696093,-15.34389,-15.07533,-16.81246,-19.38267,-8.789987,-10.75853,-0.6954697,0.460078,4.469754,-1.337119,3.798345,1.459929,-5.53234,-1.511287
0,79,6.01291,-1.847441,13.13617,-0.8414595,9.268204,-0.2134827,1.05468,-0.6190234,-3.483339,6.12231,2.752824,10.44074,16.69107,18.93146,11.5983,17.76334,16.2777,5.59496,9.522051
0,80,10.4031,2.326323,15.84693,3.382615,12.64677,4.620879,4.849271,4.635086,2.223571,10.41426,6.697252,11.87009,21.17812,22.50604,14.31133,20.84005,16.41533,5.961783,9.933246
0,81,11.43084,1.019366,12.81839,4.080906,13.34315,3.085121,2.531846,2.756855,1.162164,8.583045,5.109321,8.999602,18.42274,19.08202,12.72465,16.28999,10.98658,6.090351,5.936748
0,82,14.20858,0.8767822,11.01111,6.097175,16.86608,3.760758,3.058213,3.494742,2.655028,8.712735,5.186961,7.051017,16.68588,20.75298,15.01701,15.54367,9.73841,9.587017,6.104235
0,83,12.97185,-2.688409,7.660971,2.993158,14.31764,-0.02761253,0.4921771,-0.3512349,-0.793201,4.965808,1.729261,3.91271,12.41623,16.69855,9.777476,11.69049,5.817546,7.136436,3.138069
0,84,9.575289,-4.533261,5.331789,-2.197248,10.13038,-2.277247,-1.543305,-1.979098,-4.495746,1.803818,-1.340812,1.821464,10.05212,12.5901,4.569339,10.872,4.553828,1.70798,1.221393
0,85,9.224349,-4.175612,3.784223,-6.405794,6.521998,-1.888838,-1.407088,-0.4803692,-4.921319,1.415228,-2.44839,2.283836,10.63247,11.62997,0.654138,12.96325,8.561794,-2.416563,1.37947
0,86,15.0278,4.992656,10.18808,-3.733969,11.16326,6.069627,8.349528,6.927972,2.831994,8.043714,4.533968,7.268297,17.10058,17.19956,4.417993,21.03698,17.89651,2.662869,7.592857
0,87,11.11134,0.2968906,4.072736,-8.04076,6.606988,2.260636,4.574605,3.701825,0.1611844,4.639822,0.1413714,3.540823,13.65023,12.00844,-0.6412557,15.24695,11.47513,-3.387361,1.141225
0,88,-0.4079725,-12.71524,-9.486238,-16.75567,-4.90609,-10.3955,-8.832048,-8.577846,-13.37399,-7.827204,-12.49466,-7.003284,1.072793,-3.016325,-11.42169,1.191982,-5.710664,-15.06034,-13.15512
0,89,-11.52186,-24.99837,-22.32505,-22.47872,-11.67447,-22.67348,-21.8213,-22.04739,-24.69473,-19.27409,-23.23833,-17.21451,-13.25271,-14.81546,-19.11922,-13.92186,-21.17552,-22.14068,-25.03022
0,90,-7.015954,-21.66372,-18.95923,-13.46927,-4.386909,-19.76338,-19.54106,-20.94403,-18.39629,-15.04622,-18.45998,-15.71247,-11.92677,-11.63702,-11.5497,-12.38192,-20.69826,-16.05951,-20.23493
0,91,4.153754,-12.01349,-8.264347,-2.420334,6.94177,-8.922525,-7.800364,-9.120637,-5.994215,-4.363357,-8.438791,-8.750516,-1.748256,-2.201291,-0.7823729,-1.513557,-11.25202,-4.927111,-8.043122
0,92,6.353782,-9.48709,-6.136101,-1.622814,10.03194,-6.55909,-5.048402,-6.594501,-4.139406,-2.858472,-6.6988,-8.100767,-0.7192574,-0.3434702,1.542676,1.861578,-8.109925,-2.567156,-3.99535
0,93,6.06226,-8.169144,-4.78159,-2.830794,8.981367,-5.414398,-3.365617,-4.675086,-5.05737,-2.939951,-6.261968,-6.575233,-0.1908443,0.5690051,-0.8721626,3.313073,-3.977677,-5.08063,-4.219131
0,94,5.811173,-4.112504,-2.234244,-3.258365,7.267265,-2.398594,-0.4601447,-1.736844,-2.69258,-0.9804505,-3.5701,-3.776146,1.803833,1.497264,-2.793238,5.596589,0.7698408,-5.74113,-2.815104
0,95,-2.573086,-11.03136,-9.149281,-10.69461,-2.563903,-9.418916,-8.775703,-8.660552,-9.798526,-8.662878,-10.25394,-9.370564,-7.375872,-8.11162,-11.01174,-2.749347,-7.20761,-16.10078,-11.93275
0,96,-8.235217,-16.67214,-14.5075,-12.96877,-5.617469,-14.60927,-15.63035,-14.22806,-15.04368,-13.4819,-15.00053,-13.99429,-12.91873,-14.77108,-13.78581,-9.80786,-15.75253,-19.43745,-20.00188
0,97,-9.306976,-20.07378,-16.83662,-10.51338,-6.462223,-17.82482,-20.23223,-18.75072,-15.93038,-15.87252,-16.40113,-17.24237,-18.21446,-17.63782,-13.11367,-14.11027,-22.0673,-19.00968,-23.62476
0,98,-6.761135,-20.02861,-14.32304,-2.757054,-0.6423622,-17.27593,-20.78056,-19.08542,-12.94597,-13.67511,-13.8974,-16.1489,-18.01957,-16.44363,-7.286221,-16.1291,-24.01418,-12.59621,-21.55543
0,99,5.030467,-7.444521,-1.861715,11.07405,12.95061,-4.53522,-7.936935,-6.333838,0.4206462,-1.579034,-1.552724,-7.681341,-6.440602,-5.112772,4.388968,-5.290654,-13.34868,-0.9208351,-10.84531
0,100,7.605366,-3.50983,1.050901,10.71187,12.04896,-0.8310725,-3.929212,-2.086235,4.048054,0.6850953,1.291728,-6.036798,-4.310978,-2.464189,3.752035,-1.292504,-9.882366,-1.550799,-8.028448
0,101,10.9104,2.674988,5.239044,11.77319,11.70698,3.995896,1.131863,2.775936,8.302513,4.17505,5.510896,-2.498614,-0.3050847,0.4090843,3.484169,3.814703,-3.877044,-3.443387,-4.426694
0,102,12.02862,7.02709,6.533871,8.374757,7.372315,6.94882,5.32817,6.288891,9.049081,4.66019,6.864036,-1.293299,1.593442,0.09155439,-0.6820586,5.841507,-1.6989,-9.674782,-6.265644
0,103,11.91187,9.272153,8.641656,9.199365,4.885362,8.881081,6.805057,8.566072,9.831539,5.887913,8.641652,1.295957,3.564773,0.7733508,-2.341734,6.547697,0.749356,-11.13477,-7.933557
0,104,14.64023,12.39897,10.31622,13.45849,7.643489,12.54526,9.503983,12.41703,13.38217,8.858946,11.5474,2.642904,5.888523,2.812937,0.6560247,8.775701,2.402692,-7.422612,-7.93375
0,105,15.56953,12.11805,8.063611,13.90918,7.745827,11.41924,8.460211,10.68327,12.55948,7.387907,10.64711,1.041137,3.579022,1.481557,1.592686,4.443888,-1.454594,-7.077362,-9.179693
0,106,6.541738,2.926733,0.1866176,10.25387,2.3025,2.06543,-2.179997,0.2555598,4.256813,-0.2964489,3.254837,-5.072121,-4.994306,-6.477374,-2.910073,-6.645724,-13.48823,-11.39663,-16.42937
0,107,0.7679882,-3.725559,-5.009521,8.916087,-0.18369,-3.68572,-10.15759,-5.739141,-0.3655963,-5.068238,-1.326484,-9.221472,-11.33072,-10.17786,-3.905425,-14.07759,-20.98599,-14.09953,-20.97277
0,108,2.086658,-1.849947,-2.949931,11.40231,2.329602,-2.37928,-8.638679,-4.915395,0.7696411,-3.843166,0.5249444,-7.926279,-10.36204,-7.277459,-2.360137,-12.93507,-19.14541,-11.38603,-18.12312
0,109,-2.101012,-4.700619,-4.927449,5.574055,-3.224696,-5.539866,-9.609132,-8.124732,-2.669596,-6.759737,-2.215085,-8.466084,-12.84917,-9.051724,-7.338935,-14.90736,-18.7536,-16.18831,-20.46654
0,110,-9.466334,-9.453021,-8.151206,-3.382081,-12.12282,-10.31614,-15.19777,-12.56948,-9.117809,-12.79127,-7.036651,-11.84773,-19.24113,-13.54359,-14.51229,-17.31739,-20.81735,-22.91024,-25.35211
0,111,-12.6571,-10.26201,-10.68506,-7.306529,-15.9591,-11.05131,-16.55924,-12.72646,-11.67534,-14.98016,-9.088096,-13.61817,-21.16838,-15.12354,-17.6697,-16.60349,-20.52613,-28.01752,-28.39524
0,112,-14.79331,-10.02834,-10.79135,-10.31349,-19.0305,-10.66537,-15.92764,-11.95556,-11.92233,-15.37081,-9.367931,-13.83035,-21.10642,-16.51045,-20.75875,-16.62551,-20.99423,-30.62029,-31.22687
0,113,-13.46329,-9.608405,-10.03917,-7.978275,-19.65633,-9.848626,-16.29531,-10.98833,-10.28728,-14.14798,-8.171734,-12.58152,-19.78386,-15.82919,-20.7684,-18.06509,-22.08386,-29.12552,-32.74211
0,114,-6.56869,-4.229432,-4.805136,1.199154,-13.15396,-4.899646,-12.75105,-6.604589,-4.549975,-9.02918,-2.604434,-9.045992,-15.36807,-11.61281,-13.83828,-14.48355,-19.05969,-22.98323,-28.15712
0,115,-9.319003,-8.233047,-7.989878,3.446395,-12.13923,-8.474771,-15.2276,-10.90343,-7.141679,-11.34983,-4.985737,-11.36278,-19.15038,-12.86219,-11.41663,-18.75967,-23.4543,-22.46391,-29.54233
0,116,-9.646561,-8.486924,-6.331967,5.255246,-8.540053,-8.420671,-14.03355,-11.18101,-6.820547,-10.59954,-4.253646,-10.98162,-18.76327,-10.6379,-9.181643,-17.15228,-22.20747,-19.84202,-26.51553
0,117,-9.864245,-7.326038,-4.614445,2.188037,-9.401454,-7.64213,-13.91068,-10.23434,-6.714511,-9.717966,-3.65822,-9.13744,-16.1004,-8.578596,-10.06421,-14.61816,-18.76717,-20.85017,-24.50998
0,118,-10.58078,-5.520426,-3.061218,0.1240307,-11.51126,-6.543352,-12.66003,-8.927086,-6.513221,-8.892698,-2.770721,-7.211031,-13.40945,-6.072288,-11.10893,-12.9666,-16.7383,-22.33531,-22.35644
0,119,-0.7110995,8.728944,9.204667,6.276041,-5.881473,6.894343,1.967683,5.961797,4.237173,1.937685,8.33947,2.971972,0.01918129,5.611363,-4.512794,0.4732597,-1.567618,-17.77478,-11.5095
0,120,-2.796016,9.0872,8.179159,1.98875,-9.370913,6.673629,0.06124874,5.395957,4.083676,1.361361,7.826416,2.721727,-0.408487,3.675452,-8.262948,1.224395,-0.05421145,-21.94532,-14.03415
0,121,-13.43038,-2.5509,-2.290274,-6.05725,-19.69648,-3.87133,-10.7308,-5.878819,-4.654415,-7.697069,-1.341072,-4.762451,-11.42951,-5.539475,-15.79629,-9.295061,-11.08453,-29.02695,-25.83192
0,122,-17.10459,-7.609714,-6.275466,-5.291264,-18.99052,-8.988258,-16.21556,-11.94134,-8.933189,-10.98735,-5.047567,-7.632638,-15.24671,-9.897364,-14.87086,-15.29009,-17.374,-27.04157,-27.8693
0,123,-11.87612,-6.00331,-3.544774,1.783491,-13.00763,-6.719968,-13.75603,-9.605045,-5.071672,-7.410873,-2.310824,-5.968844,-11.79056,-5.412811,-7.656154,-11.89946,-16.50742,-18.14574,-20.11055
0,124,-10.48105,-6.574625,-3.154874,1.847116,-10.86835,-6.52096,-12.80864,-9.221424,-3.619241,-6.861182,-2.066747,-6.435293,-12.10483,-3.929679,-4.984101,-11.53088,-16.73109,-15.5675,-17.35726
0,125,-15.55329,-12.79413,-9.393933,-5.856913,-16.367,-12.78958,-19.30377,-15.29676,-10.91315,-13.60649,-8.556525,-11.50259,-19.15224,-9.016769,-10.89864,-16.19513,-21.04027,-19.384,-21.23067
0,126,-12.56079,-8.668196,-4.645061,-5.5828,-12.87077,-8.772391,-15.2358,-9.983198,-9.03108,-10.71562,-5.752135,-7.971723,-14.58637,-3.634206,-9.182784,-10.00824,-13.27199,-15.765,-12.91911
0,127,-10.8815,-6.960296,-2.388037,-8.673775,-12.26025,-6.7318,-11.90603,-7.331802,-7.429606,-9.079661,-4.513026,-5.667289,-12.67771,-1.742997,-8.175581,-6.665996,-6.896471,-14.96459,-10.29822
0,128,-5.972314,0.546631,3.942556,-6.675471,-8.239197,0.4026305,-4.886999,0.2279951,-2.702774,-3.361883,0.9877456,-0.7353101,-4.818459,3.503446,-3.230315,0.827447,0.4790775,-11.21328,-7.092102
0,129,-2.949408,5.254439,8.604131,-2.915664,-5.462616,5.062269,0.338214,4.790871,1.2899,1.533337,5.28147,3.67749,1.398903,7.037112,1.074348,6.393575,6.012892,-6.469126,-4.512624
0,130,1.335287,7.703183,10.15078,0.329526,-2.261996,7.524144,3.818081,6.803709,4.990835,4.188431,7.744577,4.38782,3.581507,9.30814,4.414151,7.990652,5.892882,-2.29566,-2.775695
0,131,-0.7887313,2.469912,6.260015,-0.3917513,-2.761739,3.223479,-1.30044,2.416956,1.777047,0.9006186,4.190279,0.7848386,-0.3167145,7.902572,3.697494,3.47853,-0.3557473,-1.99054,-5.09071
0,132,-18.34545,-17.25368,-9.992122,-13.75456,-15.06588,-15.21325,-20.45584,-16.58469,-15.21539,-15.14314,-12.16503,-12.14332,-18.43488,-9.132274,-9.16735,-14.14927,-18.51572,-13.86928,-20.38779
0,133,-24.38624,-24.92075,-15.1305,-18.29559,-17.64497,-22.32369,-27.04591,-24.63416,-20.27761,-20.7478,-17.70223,-17.65583,-26.24716,-14.83358,-13.66837,-18.45344,-24.1846,-15.62958,-23.35332
0,134,-28.07426,-27.68278,-17.6766,-24.86621,-20.78121,-25.10318,-29.58798,-26.76586,-24.49734,-23.99197,-21.28543,-19.92405,-28.02071,-16.71259,-18.00301,-19.12726,-25.56274,-18.42395,-23.79371
0,135,-23.28341,-22.6599,-12.67312,-23.57077,-18.14689,-19.89248,-23.07672,-20.05531,-21.65877,-19.39559,-17.78123,-14.75167,-20.29413,-10.93817,-14.39922,-11.57478,-16.92842,-16.12202,-17.73588
0,136,-19.5808,-18.31936,-10.15799,-24.19197,-17.10914,-15.62565,-17.21493,-15.34441,-17.43104,-15.60926,-14.91942,-12.15852,-15.4795,-7.982654,-13.06395,-5.106429,-10.8858,-14.53326,-13.73577
0,137,-20.20658,-18.90365,-9.609282,-22.71215,-15.56651,-15.71636,-18.21486,-16.01438,-15.39857,-14.14734,-13.94412,-10.8619,-15.06537,-7.917732,-10.9938,-6.146641,-9.869367,-12.10672,-13.22771
0,138,-10.03013,-8.795703,-0.7037789,-11.3246,-2.185819,-5.777863,-9.071501,-6.152111,-5.788391,-4.837221,-4.678935,-4.596584,-5.679847,1.458808,-0.02301405,1.374607,-1.903493,-0.8736507,-4.157349
0,139,-8.586296,-9.188918,-1.236865,-9.832556,0.6985363,-5.826177,-8.137989,-6.475934,-5.409613,-4.777754,-4.725196,-5.843054,-6.33675,1.751186,1.446936,1.218037,-3.237396,-0.8498173,-5.154097
0,140,-7.07584,-8.339643,-1.924566,-7.488071,3.124823,-5.051405,-8.834684,-6.187775,-3.293176,-3.473581,-3.904969,-6.204774,-5.636265,1.83551,3.46204,1.456444,-4.037578,1.71009,-3.896673
0,141,-14.39424,-17.58586,-9.673962,-14.85963,-2.091846,-13.82494,-17.71677,-14.91822,-12.31749,-12.56109,-12.21956,-14.03811,-16.64457,-6.066426,-1.734111,-6.992723,-13.51532,-3.738795,-9.692879
0,142,-14.42042,-19.15613,-9.513488,-14.91955,-2.155854,-14.58808,-17.70282,-15.40055,-13.24237,-12.57768,-12.9134,-13.67169,-16.23898,-6.417986,-2.396973,-5.142687,-11.6204,-3.094513,-10.57524
0,143,-13.22534,-15.74325,-6.795071,-16.90222,-2.962547,-11.48264,-14.28555,-12.33983,-10.0105,-10.34538,-10.34435,-11.84571,-14.12441,-4.480573,-2.901839,-1.173093,-7.23066,-4.270904,-9.331938
0,144,-7.779413,-10.72524,-1.291475,-13.62055,0.8220324,-6.757673,-7.848965,-6.95508,-6.089388,-6.140925,-6.110003,-7.356046,-9.085649,0.009591985,0.1329464,4.243446,0.1559053,-2.491135,-3.653381
0,145,-5.065334,-4.966539,3.539307,-10.4448,4.830015,-1.267003,-2.247508,-1.506938,-1.99089,-1.653854,-1.354101,-3.677896,-3.856849,4.788672,2.825225,9.273157,5.766035,-0.6565055,-2.131097
0,146,-12.62632,-12.21617,-3.848965,-15.1812,-0.406719,-7.676888,-9.379535,-8.11154,-7.178351,-7.167968,-7.338681,-8.939717,-10.4847,-1.867251,-2.346872,1.987419,-2.166728,-6.532262,-9.747114
0,147,-8.837117,-10.97924,-3.076806,-9.378331,3.364185,-6.440143,-8.960485,-7.167068,-5.056115,-5.789499,-5.730699,-9.176691,-10.05596,-1.876285,-0.2039882,1.645442,-4.125373,-5.187767,-10.0398
0,148,0.514634,-4.302736,3.635143,0.2360682,12.74202,1.083497,-2.394978,0.9059436,4.040057,1.85356,1.403307,-4.612654,-2.7292,3.92839,7.999864,5.876256,-0.5900335,1.804213,-4.583852
0,149,4.591293,-3.280558,4.454429,2.683178,15.31761,2.636547,-0.6047366,2.524538,6.531259,3.40225,2.776861,-4.513548,-1.991168,4.909448,8.97892,7.281513,0.1268387,4.226296,-4.513175
0,150,-15.17914,-22.59805,-14.36965,-12.84916,-2.782826,-17.51713,-21.2126,-18.4032,-14.36058,-16.09161,-15.6001,-18.89244,-23.21256,-14.98607,-9.635592,-11.8132,-18.981,-13.06792,-21.19264
0,151,-20.18012,-24.955,-16.55448,-12.29068,-4.410007,-20.88544,-24.56423,-22.91324,-18.14038,-18.67446,-17.61403,-19.90479,-26.20825,-17.59234,-11.59174,-14.57728,-20.54964,-15.38734,-23.14081
0,152,-9.926117,-13.34224,-3.580059,-3.121966,4.428678,-8.929503,-12.81656,-9.53901,-7.787168,-8.117758,-6.888574,-10.71152,-13.69132,-6.146204,-3.725586,-2.702745,-8.628922,-5.998224,-12.29322
0,153,-16.94142,-18.83294,-8.322302,-8.745431,-2.811348,-15.50389,-20.13199,-16.60855,-15.9212,-14.78245,-12.55832,-14.5684,-19.49679,-12.71971,-10.30941,-9.954418,-16.20598,-13.13275,-19.49227
0,154,-18.51658,-19.68264,-8.506493,-4.615065,-2.257259,-16.77212,-21.89174,-18.97374,-16.20043,-15.43895,-12.32191,-15.27901,-22.14166,-15.24834,-10.98485,-11.68657,-17.94107,-13.1197,-21.39011
0,155,-18.83128,-17.21631,-7.461305,-1.924206,0.06554491,-14.6034,-20.91861,-17.71408,-13.96019,-14.0355,-9.964321,-15.18488,-22.09814,-14.51079,-10.08072,-12.76654,-19.07663,-11.78733,-24.33153
0,156,-10.87787,-11.34769,-2.332933,5.548879,6.830622,-7.841456,-15.41161,-9.737272,-6.406854,-7.485577,-4.220625,-10.96824,-14.82425,-8.458381,-4.343818,-8.613757,-15.4289,-6.927313,-18.83394
0,157,-13.17564,-14.3556,-5.006495,3.302557,2.586609,-11.47504,-21.10551,-13.60139,-9.63335,-11.46031,-7.129772,-14.5316,-19.18621,-13.27851,-9.222036,-13.6718,-22.83448,-12.24996,-23.13163
0,158,-16.14834,-16.62136,-5.707108,2.795963,0.01518973,-13.77761,-22.26291,-16.10615,-11.75525,-13.57217,-8.624112,-15.84978,-22.05273,-15.8031,-11.49257,-15.33841,-25.22387,-14.19118,-24.56156
0,159,-14.22416,-13.09726,-2.663186,7.844334,1.134967,-11.48225,-20.3875,-14.89776,-8.583835,-10.67027,-5.066532,-12.45387,-19.87244,-13.10389,-9.919247,-12.15344,-20.11941,-12.40472,-20.83185
0,160,-10.73625,-7.394113,2.908621,12.82084,4.22122,-6.935037,-16.12684,-10.66984,-4.45904,-6.487543,-0.05919684,-7.904986,-15.33374,-8.889673,-8.192818,-7.864928,-14.01855,-11.14603,-16.3149
0,161,-17.23785,-11.85085,-2.009967,6.441076,-2.051544,-12.06515,-20.83227,-16.31103,-10.15615,-12.23098,-4.826842,-12.0181,-22.05742,-15.14523,-15.60683,-13.01045,-18.29209,-19.51675,-23.29397
0,162,-17.86228,-11.21947,0.104397,7.983655,-1.08313,-11.72314,-20.42653,-16.09838,-10.67203,-11.60078,-3.921024,-10.50238,-20.4772,-14.63589,-15.72005,-13.01705,-17.8392,-19.44349,-23.61098
0,163,-17.3478,-10.88358,0.7531655,10.35561,-1.9502,-10.98842,-21.10494,-15.28033,-9.180358,-10.57261,-2.842971,-9.837608,-19.44964,-13.28244,-14.93855,-13.18427,-19.21489,-17.98496,-23.74166
0,164,-20.41499,-13.88151,-0.9989913,11.38021,-4.061306,-14.06818,-25.73581,-20.00965,-9.609411,-11.71232,-3.735978,-11.03017,-22.01324,-15.21031,-14.52957,-16.69919,-23.53439,-18.55466,-27.15458
0,165,-17.67665,-12.43314,1.232109,15.60292,-0.5519034,-13.27508,-26.4132,-20.15328,-8.675423,-10.72625,-1.821233,-9.833259,-22.21054,-14.11705,-10.21104,-17.04909,-22.55954,-13.92027,-25.45638
0,166,-13.17663,-8.554968,5.890199,19.90811,4.046021,-9.121905,-22.19742,-15.85313,-3.570177,-6.428812,2.406775,-6.937529,-18.04652,-9.019449,-5.365359,-12.70001,-19.01984,-8.92237,-19.25072
0,167,-10.19,-3.44516,11.34303,21.44848,7.356991,-4.277174,-16.28325,-10.64888,0.7923001,-1.855277,6.824669,-2.545619,-12.12832,-3.071486,-3.265063,-6.777212,-12.11896,-6.175526,-12.97461
0,168,-18.87683,-11.32916,3.10019,10.66315,-3.846647,-13.0559,-25.21459,-19.76722,-8.82559,-10.18255,-1.443019,-7.23877,-19.4405,-10.67036,-12.3756,-14.19824,-17.98483,-15.25125,-20.48207
0,169,-13.94988,-6.073397,6.599491,12.85992,-1.438247,-8.227835,-19.19573,-14.29451,-5.035813,-5.782552,2.209513,-2.729195,-13.27947,-6.65524,-9.837119,-9.440942,-11.096,-11.94756,-16.06951
0,170,-13.22659,-5.07823,7.478197,13.90103,-0.5033616,-6.987947,-17.562,-12.37195,-4.488487,-4.591156,2.841857,-1.557943,-10.95739,-5.716495,-10.31796,-7.734851,-9.418123,-11.97386,-14.94269
0,171,-9.54603,-1.588326,12.26822,18.58239,3.55618,-2.615548,-14.56036,-7.189858,-1.075373,-0.5495567,6.612603,1.714414,-6.075643,-1.131091,-5.506172,-2.574292,-5.12417,-7.714633,-11.58075
0,172,-16.65542,-10.74655,3.435392,11.45982,-3.726933,-11.88628,-24.29576,-17.03326,-9.496165,-8.674348,-1.512411,-4.522794,-14.60584,-7.58675,-11.70357,-12.03151,-14.69715,-12.88889,-17.9132
0,173,-20.88371,-14.74381,0.4780671,10.57494,-3.355922,-15.17619,-28.71203,-20.92389,-11.13443,-10.60538,-3.764779,-6.721067,-17.74113,-7.762241,-9.894487,-15.54057,-18.19008,-12.96047,-18.13164
0,174,-20.27928,-15.46262,2.141707,12.40653,-1.099201,-15.47655,-29.36477,-21.16602,-11.76482,-10.86279,-3.639219,-7.109901,-18.63794,-7.558791,-6.548899,-14.51479,-18.55419,-10.10133,-15.91506
0,175,-11.18412,-7.049376,10.77116,17.99755,6.006729,-7.236717,-20.67909,-12.91268,-3.316672,-3.232244,4.24679,-0.9621026,-10.89991,2.011598,0.2400912,-4.613641,-7.724788,-4.003046,-7.283907
0,176,-10.31047,-5.349035,11.329,13.84367,3.569409,-6.005998,-18.66604,-11.61965,-2.124812,-2.490414,4.974865,0.6231133,-9.607697,3.755027,-1.929368,-3.011906,-3.578255,-4.845316,-6.602876
0,177,-10.92115,-3.815829,11.89026,8.219626,0.498358,-4.889491,-17.65548,-9.690515,-2.241241,-2.436737,4.983908,2.088443,-7.949607,4.125911,-5.918109,-2.694049,-0.5544383,-7.562407,-6.854125
0,178,-3.493208,6.999378,20.37054,11.49148,5.744974,5.166477,-7.034113,0.6508334,6.907072,6.413606,13.43313,9.41207,2.976073,11.25441,-0.9392482,5.870645,9.121538,-2.02126,-1.073177
0,179,4.388835,14.91933,24.71344,12.43127,8.144925,13.00193,1.867018,9.394031,13.61905,12.47925,18.74694,13.39112,11.11544,17.14756,2.586418,12.91938,14.94344,0.7134179,1.645787
0,180,3.923992,13.736,21.1158,8.046276,3.970491,11.85908,0.1476442,9.391835,10.63796,9.616474,15.75537,10.40241,9.746181,14.1029,-1.010226,10.19915,9.823925,-4.689711,-3.315476
0,181,-0.7509273,6.794842,12.20127,4.22786,-1.141609,5.13212,-4.880407,2.630574,5.334139,4.165477,9.101578,5.631023,3.597108,6.337652,-4.623795,1.897377,2.29981,-8.909366,-8.580004
0,182,-7.110262,-1.710053,6.149693,1.331941,-5.298395,-2.048309,-12.80599,-4.359197,-0.5049446,-1.277452,3.000405,1.063076,-2.306778,0.3201546,-8.830055,-5.710274,-6.301657,-12.50475,-14.66934
0,183,-0.5894093,3.863046,11.60663,7.309357,1.503741,3.172441,-6.862038,1.013895,3.57237,3.636209,7.858006,5.254661,3.985656,7.820469,-1.000494,-0.9369898,-1.594814,-6.200495,-7.823328
0,184,-0.09693351,7.177865,13.90718,2.997745,-0.6583461,5.418857,-4.309523,3.320157,5.182319,4.798137,9.534462,7.509321,5.734903,9.456183,-2.163814,1.377147,3.152028,-5.433685,-4.412377
0,185,-17.7027,-9.424854,-0.8075283,-13.17848,-16.95448,-10.71264,-20.48084,-12.46756,-10.8769,-9.606665,-5.576487,-1.868168,-8.371088,-6.314441,-17.73426,-13.86515,-9.897952,-19.67626,-17.58943
0,186,-20.43834,-13.11048,-3.727436,-14.83824,-18.09341,-13.25337,-23.08655,-14.15393,-13.4272,-11.6781,-8.480906,-3.873269,-9.931394,-8.152526,-20.02863,-16.28665,-12.97299,-22.81425,-20.1858
0,187,-8.129643,-0.7066044,8.310776,-3.393219,-4.634058,-0.8053358,-10.5153,-1.947093,-0.6418434,0.7072225,3.399482,5.365411,3.130447,4.463638,-6.398249,-4.541867,-0.5374157,-9.883501,-9.033862
0,188,3.851467,11.0943,18.98928,5.93859,5.336373,10.91226,2.17819,10.03548,10.54348,12.00064,13.69219,13.67916,16.2149,13.91756,4.268945,8.48633,11.1609,1.073183,0.4702801
0,189,3.665368,9.178958,16.33229,3.40813,4.086347,9.10289,0.07937045,9.138795,7.562689,9.176753,10.93531,11.12271,13.86788,11.71611,2.366689,5.242708,7.221434,0.1000272,-0.6472848
0,190,7.590368,11.11171,18.14279,6.74475,7.388787,11.81302,2.687597,12.97269,9.64794,11.25212,12.74069,12.66575,16.20232,15.35807,6.43424,6.519008,8.859812,4.503823,3.068956
0,191,1.955671,3.172773,11.69871,-2.007361,0.7168872,5.004713,-3.144322,6.735609,4.385823,5.230947,5.922188,7.267323,9.459803,8.193958,2.037257,0.8890606,1.980526,-1.704523,-1.268413
0,192,6.751086,9.093913,16.73368,2.627011,6.980097,11.52592,3.946975,14.45277,9.724959,10.61405,10.7755,11.10057,15.32639,14.70658,7.546581,8.59234,9.853518,3.396991,6.718082
0,193,7.008122,10.32154,18.92177,1.808252,6.927119,12.70908,7.697997,16.58286,8.30431,10.87754,11.00764,12.46153,17.15782,16.98187,6.988235,13.56705,14.47451,4.409198,10.66462
0,194,-0.4910247,2.716615,10.27699,-6.096864,-1.173593,4.940049,-0.665822,8.428741,0.7296544,4.448062,3.39837,7.565217,11.7112,9.654797,0.5886639,8.411822,8.542788,-1.69312,4.43694
0,195,-3.17878,-1.797275,6.66686,-6.839307,-2.154145,0.9233394,-4.136189,4.251706,-2.774284,1.94704,0.09980546,6.310839,9.069877,6.456662,0.040845,4.065544,6.38949,-3.153116,1.118826
0,196,-9.035253,-6.795642,2.961632,-8.168786,-2.493924,-3.461815,-8.979075,-0.5262613,-7.056552,-1.911307,-3.380494,3.013843,4.042882,3.793147,-2.435907,-1.951696,1.155061,-6.193982,-3.967128
0,197,-11.02204,-8.835443,2.354049,-6.647959,-1.622337,-5.031177,-11.83341,-2.242424,-8.474444,-3.152425,-4.236082,1.990031,1.77011,2.457332,-2.967639,-4.353584,-0.837594,-4.424513,-5.38732
0,198,-14.28479,-12.27499,-0.05719968,-7.208552,-1.968805,-8.150077,-15.18321,-5.910437,-10.61284,-5.250895,-6.431321,0.09906404,-1.351248,-0.1051505,-3.263125,-7.743366,-3.894387,-5.156121,-7.513361
0,199,-9.246963,-10.01615,2.060395,-3.304545,2.06309,-5.906729,-12.43427,-4.345145,-6.685711,-2.233722,-3.672886,1.505805,0.9564607,2.842881,-0.2690001,-4.404574,-1.134833,-2.632231,-5.176586
0,200,-11.71406,-13.66465,-0.5589415,-7.431339,-0.9927706,-9.117527,-16.05648,-7.827454,-8.509773,-4.990863,-6.379179,-1.35089,-2.843377,0.267927,-2.78658,-6.320002,-4.141556,-4.824325,-7.260832
0,201,-12.12317,-11.74742,0.0712339,-7.315466,-1.758693,-8.060133,-15.25562,-6.843783,-7.830236,-3.853827,-5.440473,0.5979208,-0.7659984,0.3289407,-3.121084,-5.868083,-1.994022,-4.433902,-5.521231
0,202,-0.9369978,1.674187,10.96656,1.446286,7.46083,4.306823,-2.759335,5.741152,3.474983,7.04311,5.452008,9.081872,11.73501,9.891235,4.167677,5.812376,9.953233,3.77535,3.84351
0,203,16.5768,20.45875,27.168,11.90066,20.52706,22.49619,16.44374,25.32924,19.6012,21.9391,20.58517,20.46214,28.16138,22.52906,15.46508,22.30461,27.06145,14.94376,16.80787
0,204,18.40344,22.00107,27.51331,10.87365,20.55981,24.75663,19.07246,28.75048,21.60348,22.56889,21.15475,19.30543,28.43198,20.94479,14.13562,23.32064,25.82828,13.38325,15.62788
0,205,6.851102,9.235745,12.8249,0.1936454,8.513107,12.42292,5.860296,16.63235,9.868085,10.13198,8.671062,8.077557,14.30782,5.94149,2.102098,8.846409,9.62909,0.8366321,1.640296
0,206,-7.361916,-4.489699,-0.05956837,-6.914292,-0.1665283,-1.310529,-8.808837,1.834992,-2.966453,-2.73722,-3.248299,-3.367241,-1.390494,-8.120227,-8.016784,-5.998508,-7.59333,-8.533604,-9.975678
0,207,-4.763721,-2.154861,1.492555,-2.499316,3.646021,0.9892463,-7.072593,3.860353,-0.04036601,-0.6154656,-0.9729456,-2.924322,-0.3280287,-7.251244,-4.572634,-4.834149,-7.616803,-4.281146,-7.635035
0,208,-5.614429,-2.176445,0.6406344,-2.810562,3.025841,0.4178347,-8.267335,2.840016,-0.381487,-1.123655,-1.377281,-3.642036,-0.9384426,-9.451093,-6.041231,-5.792749,-9.015594,-5.84048,-9.220974
0,209,-6.980869,-1.962814,0.201199,-4.330618,0.9042011,0.7354886,-7.898123,3.064783,0.5442449,-1.604251,-1.189349,-4.527207,-2.960496,-9.928963,-7.747791,-5.515834,-8.737103,-8.723072,-10.49057
0,210,-6.505065,-1.083677,0.9142668,-6.552232,-2.344927,1.273401,-7.808219,3.696516,2.159557,-1.488898,-0.6582531,-4.171275,-3.811865,-12.02752,-10.19921,-4.399836,-6.986685,-10.2578,-9.704471
0,211,-10.00757,-4.701228,-2.635431,-10.97501,-8.208797,-2.511548,-9.679283,0.5783127,-2.753,-5.230386,-4.908003,-6.499095,-5.821027,-16.65828,-15.52844,-6.708682,-11.05563,-14.38987,-12.53668
0,212,-8.321837,-0.7758081,-1.823021,-8.400325,-6.730908,0.8690798,-7.440002,4.186774,-0.2218915,-2.857928,-2.597466,-5.173583,-2.629216,-15.23232,-15.01459,-5.646608,-10.39217,-14.65061,-12.51048
0,213,-1.512729,6.338895,2.575358,-3.174767,-2.485462,8.041842,-0.529674,12.07752,6.296072,2.201001,2.954718,-2.096756,1.611555,-11.24227,-11.89124,-0.7665597,-5.097372,-10.94691,-9.856776
0,214,9.475857,15.30343,11.17126,8.062694,6.576351,17.24867,9.757641,21.69735,16.56407,11.35991,11.83061,4.730309,10.67155,-3.258201,-3.339616,6.434379,2.608915,-1.725698,-1.594831
0,215,11.08505,16.05085,9.672905,12.19354,8.458779,18.03095,9.381295,22.05362,19.01448,12.44591,12.68156,3.765908,10.53037,-3.395528,-1.666552,5.466014,0.004117507,-0.08695877,-1.47042
0,216,0.3595126,7.063475,-1.717381,5.098497,-1.192105,8.560932,-0.521022,12.30969,9.487344,2.729311,3.49835,-4.146084,-0.6795614,-12.66418,-9.54416,-5.768362,-11.35566,-8.762629,-9.154309
0,217,6.516888,12.93979,4.311009,10.77279,3.862649,14.27441,6.037673,18.67416,14.54577,7.885029,8.60662,0.407647,5.019683,-7.424595,-3.892164,0.8090469,-4.400024,-3.69686,-1.314611
0,218,12.85272,22.1421,12.38822,15.94318,9.62159,23.00933,15.11395,27.98046,22.23686,15.42898,16.19051,7.266531,13.28355,-1.816674,0.04590782,8.586308,6.20977,1.731935,5.083569
0,219,10.33627,23.32876,11.50701,14.25963,7.227824,23.9071,16.25788,30.01696,20.73337,14.14544,15.57764,6.837511,12.35968,-3.197241,-3.319202,6.814872,5.595925,-0.6645378,3.906894
0,220,-5.440805,7.228012,-4.08684,1.042438,-7.110359,8.243004,1.70952,14.35564,5.244266,-0.9960687,0.7769448,-4.929605,-4.59931,-19.36881,-17.27812,-10.00858,-10.98376,-15.44844,-11.18164
0,221,-7.959564,4.934944,-4.915993,4.028782,-7.442433,5.017744,-2.13617,9.979719,1.492421,-3.281435,-0.6110519,-5.760942,-6.766321,-20.85853,-17.1868,-14.04676,-15.42405,-14.6673,-13.17638
0,222,-3.434795,9.396664,0.5280455,9.279809,-1.104768,9.319728,1.169382,14.1174,5.122495,0.5483537,3.85631,-2.771446,-2.858058,-16.56722,-11.96177,-11.4148,-12.67323,-9.106094,-9.881152
0,223,-0.2142629,11.47736,2.801236,13.47258,2.86647,11.64367,2.718961,15.99134,8.196793,2.638852,6.573168,-2.260404,-1.987729,-12.73633,-7.875083,-10.15015,-12.68084,-4.619493,-7.817466
0,224,4.490797,14.74965,7.056877,19.14642,7.225534,15.69635,7.732372,20.49622,12.31504,6.411318,10.41191,0.5043341,1.100509,-9.096613,-2.620023,-6.59715,-9.145303,-0.02926386,-4.796341
0,225,7.427554,17.38101,10.45528,19.07497,8.760045,19.59929,11.58678,26.32722,15.09879,8.954667,12.61424,2.615355,4.396348,-5.395299,-0.7987649,-2.274108,-4.778456,0.7216736,-1.025271
0,226,9.101031,21.30173,13.10228,19.3201,10.17608,23.91063,17.3854,31.91687,17.751,11.71644,15.14585,5.054368,8.007428,-1.961192,-0.4988925,1.721909,0.1979936,2.638503,2.12067
0,227,13.2062,25.83724,14.57843,16.76819,8.646687,27.26106,20.83967,35.67863,20.7627,13.49142,17.3059,7.099971,10.28969,-0.6720482,-3.081875,3.6573,4.586556,2.092589,4.237486
0,228,3.449442,16.3204,4.066899,7.93004,-0.7441488,17.66533,11.96631,26.4542,9.883199,3.392629,7.571465,-0.1885688,-0.4908497,-10.97888,-13.3394,-7.257188,-4.727487,-7.813398,-5.821105
0,229,0.2798937,12.72472,1.910783,7.27773,-0.6224297,14.67204,9.881459,22.84119,7.811423,1.199351,5.512214,-2.660714,-3.881113,-12.68752,-14.83252,-10.5941,-8.6664,-7.369518,-8.97498
0,230,-2.255738,9.6864,-1.752255,6.599106,-1.430724,11.81665,6.075989,20.13169,4.875776,-1.696376,2.714621,-5.279536,-7.251989,-15.18414,-16.76783,-15.63121,-13.25972,-9.701229,-12.07069
0,231,-3.367695,7.517514,-1.983396,8.525815,-1.924284,9.626592,3.771358,17.71036,2.97667,-2.980612,1.685,-5.425288,-8.796862,-17.84807,-16.49402,-19.1402,-16.15038,-9.244951,-13.68021
0,232,1.671329,10.10755,0.4476295,11.80523,2.424702,11.80894,6.314705,18.9853,6.218003,-0.3771468,4.499084,-4.023341,-6.636683,-14.94746,-14.13588,-17.72107,-14.65404,-4.694842,-12.40326
0,233,0.1208624,7.282837,-1.601698,9.366902,2.263282,10.45037,5.273192,18.58866,5.44395,-1.934563,2.514781,-6.304489,-9.000013,-15.00323,-15.37448,-18.65847,-16.17675,-6.535646,-12.72925
0,234,-4.979979,3.353694,-5.371164,2.257623,-3.365156,5.691547,0.5655285,13.69124,-0.6836933,-7.373772,-2.218196,-9.520053,-14.65649,-19.65219,-19.27333,-21.37392,-18.04685,-10.9013,-14.37306
0,235,-1.428393,7.872498,-1.623834,3.672844,-0.4910372,9.349567,4.725858,17.09958,2.278943,-3.988361,1.108561,-6.048686,-10.52706,-16.75428,-16.58192,-16.74615,-11.66176,-8.335033,-10.42486
0,236,-2.483469,8.342836,-2.524024,0.03746966,-2.501472,9.93717,5.32054,18.52933,1.388928,-4.620995,0.2892791,-6.576875,-9.910073,-17.29871,-19.34654,-16.97612,-12.10547,-11.48056,-12.75438
0,237,-5.228967,3.611566,-6.534731,-5.743062,-6.319424,6.249837,2.617527,15.77312,-2.600765,-8.535535,-4.114567,-10.0597,-13.56218,-20.57496,-24.62471,-19.79795,-15.74477,-13.91179,-16.47575
0,238,-4.036713,4.429433,-5.999974,-5.455984,-4.600562,7.916297,5.483005,17.82923,-0.01484724,-6.734272,-3.011172,-9.236959,-12.41771,-19.39961,-22.56633,-18.8436,-14.00321,-9.841725,-14.4404
0,239,-9.18413,-1.050392,-12.28387,-10.37524,-9.4783,2.595454,-0.8066723,12.72524,-6.39734,-12.68382,-8.747519,-14.36187,-18.80837,-24.93307,-26.59139,-24.15074,-20.35889,-14.30782,-19.96175
0,240,-13.35874,-8.397556,-16.59886,-11.48908,-11.23936,-3.926759,-6.401386,5.783128,-11.60916,-17.59051,-13.74364,-18.57394,-25.13675,-30.05882,-26.21634,-30.45377,-27.88311,-15.85793,-23.35025
0,241,-12.80682,-8.241952,-16.45567,-8.095282,-7.545221,-3.750435,-6.458632,4.533833,-9.331919,-15.61072,-12.37277,-18.15221,-23.90467,-27.7252,-22.27843,-29.37393,-27.76102,-10.90585,-21.33851
0,242,-15.39691,-11.81349,-18.14397,-10.44055,-9.374585,-6.758266,-9.805227,1.656593,-12.94798,-18.45545,-15.07759,-20.33871,-26.5491,-27.67973,-22.38838,-30.41904,-30.50365,-10.65131,-21.78135
0,243,-9.183999,-7.345128,-12.30287,-8.259847,-2.468896,-1.505681,-3.803639,8.103698,-8.851761,-13.30676,-11.1186,-15.91111,-19.51079,-22.41059,-16.16797,-23.64702,-22.83441,-5.835493,-15.36152
0,244,-11.63265,-10.59186,-14.4503,-14.47378,-6.11875,-4.974864,-6.605389,5.118289,-13.15915,-16.72922,-14.79616,-17.68741,-21.66039,-26.11173,-20.59352,-25.77057,-24.59838,-8.829391,-16.70234
0,245,-13.04873,-12.40047,-15.40524,-15.53706,-7.442489,-6.685964,-8.062257,3.175998,-14.38046,-17.77562,-15.98942,-18.19736,-22.89466,-26.8653,-20.89855,-26.49189,-25.16625,-7.639303,-16.38056
0,246,-10.98125,-10.69181,-13.31,-11.35349,-3.646882,-4.375535,-6.051328,4.854791,-10.94636,-14.19453,-13.17618,-15.84895,-19.37125,-22.60251,-16.58904,-23.15279,-22.03197,-1.232142,-14.08898
0,247,-6.305623,-7.424314,-8.91598,-7.259752,0.4611122,-0.6532829,-3.371195,8.433035,-5.817014,-9.753713,-9.026885,-12.82829,-14.6078,-17.35196,-10.87805,-20.10372,-20.09044,3.875718,-10.06887
0,248,-2.725087,-6.386757,-7.435784,-5.670537,3.750874,0.4481212,-2.724819,9.167411,-3.359881,-7.839695,-7.549333,-12.03586,-12.69499,-15.88906,-7.734471,-19.17807,-19.73138,6.49917,-8.101973
0,249,7.434443,2.52778,1.329039,0.7681206,13.72731,9.859415,7.613678,19.77371,5.462394,0.9480115,0.2540869,-5.625595,-2.097993,-6.872056,-0.8932968,-9.287782,-9.925834,14.44736,1.492325
0,250,10.87839,6.500566,3.894602,0.7924796,13.82363,13.44298,13.23862,24.25078,8.257608,3.501578,2.593953,-2.965427,1.351669,-4.417264,-0.3285449,-5.097653,-4.794033,15.17706,6.123831
0,251,20.74421,16.97255,13.58964,6.062473,19.64746,23.73078,25.52228,35.91594,16.21266,12.08092,10.8789,4.959401,12.44717,4.561504,6.002776,5.753325,7.054206,19.73468,13.89857
0,252,10.92843,8.701979,4.412983,-6.910182,8.06974,15.08676,16.93089,27.34562,7.221438,3.215392,1.968056,-1.905607,4.184668,-4.45855,-5.108098,-1.698599,-1.533277,8.162527,5.281313
0,253,8.3135,6.400363,0.02711174,-10.83566,3.750451,12.80748,13.83909,24.96416,5.928718,1.200913,-0.5803503,-3.711755,1.841484,-6.336077,-7.988419,-3.806307,-2.821716,4.905641,2.976999
0,254,6.975027,5.287889,-0.5864005,-11.72756,3.181154,11.56308,13.10991,23.60921,4.657128,0.8452049,-1.504362,-3.269906,2.604517,-7.424418,-8.13141,-5.571207,-3.864198,4.098668,1.915062
0,255,-1.18321,-5.021744,-9.246305,-18.78321,-3.977892,2.68909,4.406109,14.59945,-1.953524,-6.328978,-9.365414,-9.43699,-6.182474,-15.89575,-14.2182,-14.96641,-13.02198,-3.319371,-7.583363
0,256,-17.81116,-23.40724,-26.39626,-30.83536,-18.224,-15.1528,-14.59528,-4.666437,-17.50701,-21.7762,-24.66361,-21.95575,-24.08851,-29.70512,-25.70418,-32.5107,-31.33713,-15.58556,-22.53855
0,257,-11.23147,-16.2578,-18.50593,-20.40838,-6.678053,-7.851391,-8.410755,1.705852,-8.850558,-13.76683,-16.64041,-16.83833,-17.20169,-21.16658,-15.61672,-24.89919,-23.99261,-5.407042,-13.79952
0,258,2.049586,-1.804676,-4.142023,-9.02666,4.878568,5.792422,5.700966,15.92733,3.840764,-1.012357,-3.887532,-5.816467,-2.410695,-8.268685,-4.261059,-11.36398,-9.466767,6.012886,0.7381076
0,259,3.03208,-0.84166,-3.163744,-9.543009,3.229774,6.426254,5.26409,17.16259,3.843,-1.007493,-3.550841,-5.039527,-1.755734,-8.357462,-6.90856,-10.36685,-8.065566,4.968682,1.704734
0,260,-1.390455,-4.348591,-6.603795,-12.7203,-1.387306,2.556105,1.333359,12.85283,0.1907962,-4.57289,-6.933943,-8.064695,-5.666546,-12.40624,-12.32748,-11.25805,-10.69013,0.6599261,-0.8701902
0,261,3.638249,2.489321,-1.058441,-6.079151,2.822388,9.191548,7.7777,19.84409,5.980993,1.112951,-1.075346,-3.567365,0.497088,-6.071445,-7.063096,-4.367428,-4.271705,3.978816,4.596704
0,262,2.563247,1.613087,-0.4450991,-4.174926,0.4293768,8.686625,7.535008,19.58027,5.704854,1.157791,-0.956336,-2.379805,0.4364994,-7.307674,-7.331937,-5.093825,-4.277937,2.146354,2.88294
0,263,-3.293897,-3.718956,-5.555981,-5.218387,-4.642288,3.326212,1.618229,13.61645,0.8188022,-3.022213,-5.201214,-5.245899,-3.991191,-13.36096,-11.77096,-11.71326,-10.95721,-1.709642,-4.383301
0,264,-4.68955,-5.20566,-7.859377,-3.0383,-3.821276,1.720343,-0.8163678,11.80385,-1.578922,-4.54018,-6.761644,-6.919302,-5.507031,-14.81989,-10.94045,-13.47177,-13.79309,-3.280067,-6.350301
0,265,0.8401093,1.098192,-2.179088,5.285491,1.903205,7.630518,6.171194,17.65011,3.969532,0.3993777,-1.036672,-3.471062,-1.559581,-10.36605,-4.975772,-8.308156,-9.329228,2.4965,-0.5581089
0,266,2.927297,2.578426,0.212468,7.370213,1.018119,8.932199,7.372545,19.09954,5.924577,1.313853,0.7389265,-2.315353,-1.613131,-10.50566,-5.982303,-7.329805,-8.145338,2.849435,0.6308517
0,267,-1.903182,-1.879926,-1.891576,5.721915,-1.985255,4.561065,1.059167,14.32758,2.598881,-1.980161,-2.102321,-4.076784,-5.966669,-14.7973,-9.003756,-11.66797,-11.25884,-1.052735,-2.232288
0,268,0.7246788,2.608692,-0.01392343,9.013096,0.3804595,8.485677,3.233268,17.47183,7.641364,1.842623,1.811898,-1.567611,-2.97974,-12.26261,-8.264346,-8.843434,-6.801393,-0.008407959,-1.758818
0,269,1.718114,5.811199,2.180803,11.16459,0.8719167,10.64223,6.442219,19.01214,8.959844,3.496092,4.09618,0.01098119,-0.8137978,-10.14273,-8.827781,-5.910955,-4.538525,0.08192026,-0.9642697
0,270,5.547184,9.902102,7.797824,16.93966,5.201093,15.26081,12.34438,23.99759,13.43011,8.17416,8.787276,3.971513,4.430291,-4.808529,-4.810422,-1.803543,-0.8644111,5.033175,2.798841
0,271,-2.097696,2.574179,1.045284,12.51111,-1.219837,7.629009,2.840359,15.40261,6.501359,1.669865,2.51856,-1.044794,-2.961607,-12.23486,-9.063334,-8.903032,-8.761215,-0.09741438,-3.548434
0,272,-9.372507,-7.599788,-5.751875,9.249499,-7.354963,-2.086037,-7.443357,5.040299,-2.268685,-6.176906,-4.961362,-6.169766,-12.16809,-20.49141,-13.72562,-19.0951,-18.12356,-2.720119,-11.00485
0,273,-0.6610895,2.274279,4.627678,22.62543,5.398716,7.60528,0.184547,14.1628,6.751591,3.406653,5.108179,1.237411,-2.267851,-8.141363,-1.915557,-9.735214,-8.696403,8.241892,-1.544766
0,274,6.070921,9.350368,11.54485,27.92175,11.82918,14.23688,7.592271,20.61745,12.61456,8.979035,11.1545,4.715682,3.570564,-1.627734,4.441767,-1.041092,-2.532812,12.82038,5.034013
0,275,6.623244,11.21801,13.53237,27.63455,11.93497,15.0973,9.306726,22.1329,10.9559,8.615788,11.51672,5.99182,4.684731,-0.9397389,3.029635,-0.1166594,-0.4902683,10.96259,7.30962
0,276,5.624907,10.93402,13.03654,24.11696,8.830626,14.30944,7.731089,22.0324,7.57083,6.305338,9.922976,5.337902,3.686626,-1.891476,-0.1699714,-0.8220138,-0.7789648,7.277127,5.064309
0,277,3.34588,6.864861,8.773341,19.7765,3.232779,10.10376,3.870311,17.54312,3.696934,2.605446,6.057205,2.700148,0.27559,-5.243954,-4.137993,-3.781178,-4.31367,2.987442,0.4385738
0,278,-16.35297,-11.7501,-7.0204,6.693743,-10.54424,-7.955273,-14.27531,-1.349124,-13.9275,-12.99363,-9.684469,-8.563273,-16.13442,-20.14299,-18.21769,-20.67979,-20.64046,-11.91596,-15.02477
0,279,-6.912902,-0.205547,5.173398,19.3647,2.832696,3.162418,-3.908258,9.08497,-3.377741,-2.072264,1.530647,-0.4101788,-4.721064,-9.876799,-7.450625,-9.560578,-10.04066,0.06233274,-5.700033
0,280,5.111723,11.20841,14.60307,27.34142,13.64566,14.23198,7.304693,20.09986,7.810095,8.148313,11.32804,6.235034,6.427508,-0.4014196,0.6678385,1.267346,-0.04313032,8.314597,2.168879
0,281,7.113855,13.68491,17.58719,29.59004,15.38052,16.52059,9.888631,22.17999,11.02276,10.20872,13.9363,7.212662,7.772734,1.067519,2.244236,3.080562,0.3135135,10.4305,5.04744
0,282,6.579492,12.12155,15.66895,27.941,13.98064,15.45381,9.290091,21.75142,9.872311,8.521474,12.09331,4.708684,5.841642,-1.320719,1.23469,2.02229,-3.263738,9.750232,4.262629
0,283,-10.15612,-7.355841,-3.307898,12.41054,-0.2964221,-3.54844,-10.32146,2.080773,-7.799567,-8.665203,-5.447484,-9.21971,-13.38782,-18.53639,-13.18597,-15.89108,-20.86329,-4.918252,-11.01252
0,284,-10.09486,-7.458425,-3.038612,14.29777,2.468937,-3.89062,-9.682039,1.416284,-8.000709,-8.001612,-5.185128,-7.913143,-12.46394,-17.33517,-11.59471,-16.31542,-18.92321,-4.2616,-9.220408
0,285,-6.741276,-3.063613,0.900018,15.51829,6.201683,0.2155267,-4.445697,5.873849,-4.189921,-4.348781,-1.790444,-4.8544,-8.217589,-14.2442,-9.317799,-12.04248,-13.50211,-1.931259,-4.277042
0,286,-0.5657188,5.178438,6.479496,18.51362,10.10109,7.399709,1.531369,12.8204,2.413117,1.906249,4.404725,0.09987043,-0.5853883,-8.583742,-4.968564,-5.651251,-6.685253,2.008301,0.1746411
0,287,-5.057202,0.6805682,2.140901,14.46427,5.337859,2.652979,-3.191279,7.883262,-2.497237,-2.411383,-0.06980743,-3.390218,-4.423416,-14.6245,-9.381276,-10.16445,-12.90266,-1.571567,-4.595211
0,288,-3.748036,-1.250606,0.7179008,15.22165,6.165806,1.652344,-4.868415,7.939803,-4.366524,-3.538513,-1.685914,-4.163613,-5.115747,-15.08173,-9.588599,-11.85111,-14.06926,1.07882,-5.169382
0,289,-6.60119,-6.312762,-2.705367,10.95977,3.274831,-2.944812,-8.857432,2.988669,-8.51158,-7.308653,-5.631222,-7.263396,-8.981337,-18.86077,-12.37793,-15.85427,-18.70415,-2.378111,-10.77665
0,290,-14.02074,-13.62708,-10.62692,4.834665,-1.246485,-10.53515,-16.40063,-5.201017,-15.79408,-14.23837,-12.80198,-14.03286,-16.05488,-25.4119,-18.16624,-22.18278,-27.93783,-8.172975,-15.62954
0,291,-12.52234,-12.20014,-7.577159,8.202075,2.189655,-8.535315,-14.00931,-3.285631,-12.79822,-11.27815,-10.27716,-11.90951,-13.11316,-21.45224,-15.07186,-18.5071,-24.90442,-3.528383,-10.9388
0,292,-8.475702,-8.206209,-4.856792,10.09965,6.152899,-4.344521,-9.668654,0.7847695,-6.920155,-6.780975,-6.497543,-9.292342,-8.928241,-18.08312,-12.05692,-14.94618,-20.5248,-1.385848,-7.75511
0,293,-5.62325,-3.091802,-3.038244,12.1439,8.53916,-0.8057118,-6.040389,2.729825,-2.02925,-2.901746,-2.65917,-6.565272,-5.576516,-16.21085,-10.2938,-11.70161,-15.56559,0.1595818,-5.816629
0,294,12.70259,15.97158,13.43076,23.70331,21.39911,17.83579,13.67498,22.69062,15.30504,13.3358,13.16467,5.812629,13.23556,-1.29512,1.897725,5.668443,1.291273,12.51297,8.127298
0,295,6.921701,11.37561,6.874864,13.65764,12.60468,13.73612,8.885468,19.8002,10.27219,7.382447,7.377894,0.6334125,7.194239,-7.86752,-5.456394,-0.5565377,-5.494268,4.025014,0.5727486
0,296,4.489757,6.784514,3.186677,10.67292,8.880295,10.30622,5.888917,17.12668,8.018198,5.14602,3.93341,-0.5998377,4.968426,-12.90594,-8.068092,-5.058887,-8.176441,0.1922275,-4.095187
0,297,1.284021,2.502693,-2.935177,5.963909,5.23719,5.652085,2.623044,11.86006,4.067012,0.8722847,-0.5236448,-4.334766,0.1346547,-17.11033,-11.79081,-11.39933,-13.52322,-3.659626,-9.372752
0,298,-10.15187,-9.237748,-14.09367,-2.588233,-4.188443,-6.279738,-11.2213,-1.67494,-6.209312,-10.11576,-10.30258,-13.44661,-13.7093,-26.65545,-20.94286,-24.3928,-26.51559,-10.31789,-20.16378
0,299,-11.937,-11.34996,-14.64646,-2.138916,-3.216506,-8.190857,-14.54773,-4.10075,-7.752256,-11.80556,-11.36548,-15.65582,-16.39981,-26.78363,-21.03103,-25.21359,-29.42347,-8.776098,-19.9239
0,300,-12.30425,-12.59181,-17.19724,-4.416109,-4.897639,-10.15994,-16.22481,-7.152777,-8.971261,-13.40569,-12.84247,-17.13326,-18.71251,-27.99456,-21.48591,-26.37319,-30.09194,-10.38887,-21.7879
0,301,0.6868215,1.686721,-4.182731,3.697026,5.42328,4.285063,-1.376903,8.228652,5.654134,0.3210548,-0.1050962,-5.937343,-2.930719,-13.65471,-10.14883,-12.46783,-14.28091,-0.4079574,-8.71725
0,302,0.1873922,0.2997865,-5.528415,-2.289644,0.3558046,3.0437,-1.767366,8.145684,2.272068,-2.580204,-2.755643,-7.531361,-4.968571,-16.42265,-14.08007,-12.20317,-14.43846,-3.107985,-11.10018
0,303,4.89872,7.066476,-0.7022276,0.704848,4.041181,9.167087,4.638005,13.97612,8.313869,2.776145,2.730005,-3.621819,1.003556,-10.84565,-10.68039,-7.045012,-9.175169,-0.2439412,-7.630687
0,304,8.655156,12.49189,2.216659,2.075476,7.595848,13.96697,8.242101,19.02775,12.28823,6.740549,6.207427,-1.143383,6.655573,-7.611674,-7.728417,-3.012602,-5.984454,-0.280394,-4.859795
0,305,3.073469,6.968666,-3.517859,-1.824296,1.125033,8.110814,1.335893,12.67006,6.050639,0.9032219,1.019962,-5.386472,0.1856335,-13.06972,-12.37228,-9.373362,-12.82402,-2.485392,-10.67183
0,306,-0.3082934,2.868605,-7.10911,-5.065418,-2.811191,4.213825,-2.781141,8.135661,3.150757,-2.260321,-2.07034,-7.689612,-4.064551,-17.31565,-14.85304,-14.10858,-16.60238,-3.053503,-15.70557
0,307,3.896485,4.284049,-5.496225,-2.622678,-0.5710412,5.863879,0.03807672,9.535272,6.374301,-0.3175708,-0.02863873,-6.66454,-3.251692,-14.80584,-11.64956,-13.01848,-15.17989,-1.805864,-14.02332
0,308,6.017689,5.954185,-5.27949,-2.527795,-0.2519765,7.276759,1.469598,10.68836,8.517647,1.183266,1.118601,-6.087842,-1.507525,-13.96713,-11.94229,-11.70912,-14.3526,-0.1889066,-13.58824
0,309,5.774745,7.826026,-5.149382,-4.604033,0.9489295,8.67646,3.495716,12.07829,10.32706,2.736853,1.985648,-4.805821,0.7713555,-12.57227,-13.40694,-10.57923,-11.26334,0.3096076,-10.79633
0,310,1.474823,5.261367,-7.517079,-9.318721,-3.912922,6.614418,1.117293,10.32313,8.17142,0.1797093,-0.3550776,-6.689275,-2.32654,-14.50525,-16.59116,-11.84194,-12.56153,-3.911805,-13.7571
0,311,-8.235136,-5.545019,-17.02249,-19.88839,-15.38639,-3.944422,-8.754628,-0.1998444,-2.025186,-9.508525,-10.29552,-13.99423,-12.02482,-25.79075,-25.99537,-21.11534,-23.41034,-13.52332,-23.29493
0,312,-12.99239,-7.634228,-19.4376,-18.44547,-17.17521,-6.083992,-11.61937,-2.7313,-3.382966,-10.41789,-11.75078,-14.42709,-13.35681,-28.99467,-26.22579,-23.28554,-25.19445,-13.83405,-23.72957
0,313,-15.86332,-8.602177,-21.73362,-20.07537,-19.10369,-7.47106,-13.5869,-4.741968,-4.199477,-11.97244,-12.95613,-16.33145,-15.92954,-31.43898,-28.24947,-25.26306,-27.59774,-15.47035,-25.76641
0,314,-2.268809,3.2044,-10.38043,-9.989063,-8.377438,4.716282,-1.029198,8.086887,8.231046,-0.8575136,-1.959929,-8.457812,-4.349951,-19.96444,-17.64937,-13.73117,-16.73238,-6.071513,-16.04136
0,315,10.84203,14.72964,0.0687587,-1.980927,0.7235116,16.48363,11.00106,21.32843,18.78022,8.797357,7.598818,-1.570988,6.453722,-10.53391,-8.037102,-2.695146,-6.965046,2.54562,-5.99486
0,316,-0.8818458,3.437768,-12.6476,-12.65582,-11.03285,5.427817,0.6313961,11.08198,6.000628,-3.054294,-4.275753,-10.87177,-6.059728,-22.58453,-17.88258,-12.94446,-18.02478,-6.918856,-14.85924
0,317,3.481446,8.60622,-8.05251,-4.781832,-6.155993,10.28037,3.921459,15.60292,11.70162,2.50875,1.064596,-5.860402,-0.8235826,-17.51555,-12.06578,-7.489232,-10.53038,-3.891941,-9.046716
0,318,3.425596,9.159792,-7.244814,-2.993061,-7.091965,10.51547,4.136972,14.96386,13.49922,4.094836,2.510475,-3.674537,0.3955967,-16.09688,-11.64961,-6.361585,-7.561169,-4.189391,-8.616136
0,319,3.169128,10.72797,-6.446987,-2.948049,-6.893772,11.76552,6.506961,16.06439,14.22875,4.91713,3.473854,-3.154403,1.542686,-14.11663,-10.93057,-4.315826,-6.257668,-5.30186,-7.520154
0,320,-3.216917,6.263802,-9.897341,-5.876812,-12.15414,7.757205,1.674801,12.54984,9.715989,1.180607,-0.4191779,-5.562469,-1.967355,-19.06908,-15.18682,-7.411538,-10.1213,-10.44396,-11.33067
0,321,-15.67293,-5.817475,-19.54465,-12.05088,-21.31173,-4.109332,-12.04801,-0.06540402,-2.908005,-9.227311,-10.49711,-12.59738,-12.8911,-29.0181,-21.2502,-17.92085,-21.00873,-18.75541,-21.88824
0,322,-8.241313,2.196184,-11.73428,-1.13205,-11.76141,3.53332,-6.188706,6.327265,5.40455,-1.216802,-1.998932,-6.520832,-5.711642,-19.6112,-11.10581,-10.6817,-12.83459,-9.729812,-15.49592
0,323,2.077163,10.55454,-2.546755,8.228504,-3.003062,12.22241,2.69587,15.23424,15.29419,7.551593,6.612294,-0.3458497,3.27608,-10.6085,-2.456556,-2.086417,-5.534119,-1.2385,-6.54818
0,324,3.258265,11.32952,-1.206335,9.475094,-3.50282,13.07491,4.28051,16.80038,14.34897,7.475927,7.077799,0.6101388,4.040869,-8.716269,-1.386572,-2.096026,-5.398535,-1.565366,-6.66385
0,325,-0.6500314,9.132648,-2.793304,5.514091,-8.288618,10.12288,0.6637157,13.83534,9.414587,3.653374,4.324617,-0.8186974,0.67325,-11.48654,-4.674491,-4.829409,-7.272203,-5.873435,-9.859632
0,326,-3.832133,5.591999,-4.672126,3.217736,-11.28046,6.207719,-2.760666,9.456796,5.369461,0.6178208,1.463045,-2.159948,-2.046082,-14.10489,-7.453331,-6.624241,-8.752722,-10.88065,-12.38077
0,327,-7.268845,3.979089,-5.792663,2.574237,-13.73375,4.294105,-4.041075,7.885682,1.429306,-1.233441,-0.4729561,-1.956794,-2.421339,-14.8926,-8.49739,-7.413187,-8.828479,-12.51117,-12.75873
0,328,-10.17194,2.142656,-8.186592,1.702083,-16.1909,1.746818,-6.483333,4.787595,-1.806666,-3.323811,-2.590429,-3.004207,-3.814636,-16.44695,-9.458925,-8.955575,-10.76365,-13.90861,-14.02152
0,329,1.845798,15.21813,5.449098,12.86503,-4.280168,14.84084,6.788389,18.22755,10.31864,9.007817,9.608576,6.556288,10.49447,-3.898385,1.409048,4.224555,1.260747,-4.603821,-4.443307
0,330,4.244904,16.51911,9.654298,15.18813,-1.694142,16.40514,9.738408,20.16825,10.6745,10.30171,11.50197,8.48697,12.40074,-1.209931,2.417879,6.819532,3.853531,-4.603348,-3.504368
0,331,6.051097,17.31771,9.809026,17.99095,0.3238236,17.76221,10.85522,21.71609,12.16434,11.8714,12.46333,9.312256,13.77868,0.01372402,6.480573,7.759159,4.799024,-1.758122,-2.548672
0,332,1.052608,12.35167,5.984573,15.43703,-2.435983,12.58252,5.187344,15.95242,6.484523,7.264674,8.165003,5.719324,9.150398,-3.018043,4.538063,4.306541,-0.2948047,-4.575977,-5.237256
0,333,-12.47074,-2.369339,-5.373861,5.06865,-13.02441,-1.578954,-8.810019,1.873094,-8.847591,-5.411561,-4.582134,-2.82755,-2.794749,-13.95188,-6.652274,-8.440161,-13.25187,-14.59464,-16.65102
0,334,-21.72624,-10.74453,-10.81182,0.1619209,-18.80833,-9.510006,-17.27435,-6.48068,-16.15261,-11.72958,-10.79018,-6.598387,-9.751933,-19.28882,-11.66194,-15.47797,-19.10211,-19.11884,-21.33416
0,335,-19.54891,-8.827036,-6.351246,2.131841,-14.87901,-7.630993,-15.2921,-4.471776,-15.30417,-9.409866,-8.397977,-3.266341,-6.040346,-13.83437,-8.891817,-11.79765,-13.88666,-16.25281,-16.58647
0,336,-4.032024,7.022868,9.335158,16.29648,-0.4270886,8.090096,1.371864,11.51505,-0.9243142,5.710629,6.203198,9.084984,11.36325,3.189815,5.695766,6.076361,4.212822,-2.901275,-2.585241
0,337,5.346332,17.15523,18.62774,21.79166,8.585004,17.98753,11.5585,21.73762,7.409041,14.23516,14.50645,15.30284,21.29432,11.16868,14.25415,16.6665,14.17467,4.055471,4.485052
0,338,14.36659,25.05712,27.17103,29.26666,15.96233,26.00979,19.76455,30.64011,14.32229,21.02521,21.7593,20.76251,29.09097,19.6258,19.92706,23.68901,20.71168,12.15898,11.94084
0,339,10.86932,19.73794,21.49691,27.03894,10.92811,20.86766,15.13655,25.35383,9.942042,16.32399,17.17861,17.06352,23.17399,14.96102,16.48071,18.21925,15.4737,7.364704,7.090033
0,340,-0.2034583,9.570388,11.63271,19.91316,3.67195,10.92931,4.21003,14.86924,0.04246907,7.009567,8.015115,9.252123,12.46578,4.490901,10.67241,7.855819,4.293248,-1.519288,-2.604918
0,341,-3.077919,6.564461,8.481278,18.99048,3.67688,7.638605,2.217519,11.37435,-4.056561,3.589994,4.937953,6.497092,8.368814,2.081287,9.167975,4.624887,1.486356,-2.587358,-3.580166
0,342,-8.269862,0.4433901,2.857552,14.0633,-0.3871829,1.742842,-3.388723,5.208885,-9.668075,-1.485247,-0.5139833,2.03578,3.36896,-2.027478,3.88996,0.7474064,-3.891592,-5.489999,-7.339197
0,343,-10.60239,-2.087475,2.295025,10.35652,-2.034773,-0.142896,-4.815235,4.061938,-12.68623,-3.62127,-2.744258,1.032069,1.715766,-3.714013,2.297712,0.3378655,-3.95026,-8.182564,-8.71536
0,344,-4.803325,6.41198,9.780345,14.99547,3.558349,7.368307,2.578267,11.26145,-6.348973,2.746965,4.109078,6.126382,8.929802,2.248709,8.266039,8.020948,3.373161,-3.339363,-2.87572
0,345,5.893262,17.37516,18.10533,20.54362,11.14059,17.77812,14.01433,22.33247,3.425111,11.40913,12.69997,12.15348,18.93402,11.61192,13.80159,17.77869,12.60009,1.700498,5.376936
0,346,5.049377,14.93334,14.37763,17.12517,8.682579,15.72377,12.24513,20.94024,0.8898337,8.708237,9.57688,9.331573,16.19539,7.948354,12.30682,15.07455,9.183994,-0.4518973,2.462289
0,347,6.736322,13.54247,12.11,16.28885,8.61132,14.36663,10.47328,19.49723,0.4216192,7.43666,8.035148,7.193926,14.23377,4.741196,11.1598,13.16633,6.413535,0.612372,0.876004
0,348,13.04895,19.38814,18.05439,23.51707,17.2148,20.79138,16.65754,25.97161,7.739128,13.78666,14.26963,11.17453,19.83978,11.29593,17.56272,18.20772,11.91171,7.735475,6.516656
0,349,11.37599,17.61621,13.78152,21.96594,16.20645,18.63693,15.33276,22.80086,6.960407,11.94798,12.24029,8.022173,16.61568,9.6184,15.8933,17.11351,9.52862,6.212735,5.004959
0,350,4.936899,13.28251,8.055104,15.92035,10.45446,14.03441,11.78182,18.59522,1.364507,6.25782,7.098787,3.611323,10.25245,4.872096,9.209549,12.331,5.185298,-0.2487704,1.467702
0,351,-6.206662,2.247766,-1.328191,3.364327,-0.6029174,3.98342,1.232981,9.162313,-7.751398,-2.900334,-2.608617,-3.003962,0.8045709,-4.911158,-1.391384,2.848622,-3.385762,-10.60269,-7.093562
0,352,-2.540263,7.17809,2.289032,4.648315,0.6449128,7.944043,4.748982,12.84128,-4.017777,0.2570008,1.129724,-0.1470244,4.442528,-0.3430942,1.120084,6.598243,0.7078853,-9.145366,-3.168362
0,353,-2.235985,5.118601,-0.44907,2.085412,-2.089491,5.858916,3.709827,11.34017,-7.083519,-2.295779,-1.562687,-1.538178,2.329291,-2.727835,-1.057272,4.273821,-0.5872855,-10.9932,-5.52173
0,354,-3.525934,4.537264,-1.548973,4.620025,-1.757172,5.506445,2.864966,10.3639,-7.013092,-2.089987,-1.491433,-1.652434,1.482411,-3.163137,0.2085636,4.425904,-0.1322638,-9.80143,-7.079937
0,355,-5.05887,2.843025,-3.901787,2.075917,-4.203569,3.537865,-0.2023187,7.618332,-7.42487,-3.76995,-2.979222,-3.844525,-1.538637,-6.304448,-0.8875028,2.392743,-2.943603,-10.74748,-8.940594
0,356,-4.655426,2.688359,-4.4524,2.912713,-3.498313,3.446775,-0.8191017,7.002266,-6.084967,-3.684093,-2.489149,-4.462477,-2.79674,-4.978141,0.09299506,0.6934938,-4.400324,-9.618876,-8.769619
0,357,6.830122,14.44949,6.183161,13.44365,6.851517,15.78321,10.71188,19.6186,7.484586,7.999211,9.040949,4.093235,8.193479,7.10553,9.432822,12.28329,9.002044,-0.784207,0.4775749
0,358,18.50728,27.17712,15.50966,17.94834,13.7921,28.1951,23.29688,33.42891,18.48521,17.45697,18.46727,10.51669,18.94037,15.67706,14.75412,24.09543,20.06781,3.975012,8.771909
0,359,14.78488,22.42625,9.542493,10.93939,7.20609,22.85246,20.10657,28.25905,12.72098,11.85164,12.66648,6.258691,13.4548,8.449161,8.738082,19.59228,15.248,-0.4970802,5.123927
0,360,9.201584,17.23565,5.68954,5.589472,2.646363,17.96695,16.5482,23.29006,8.461346,7.933505,8.343712,3.399662,9.788186,4.47979,4.324796,15.60025,10.76226,-4.182631,1.937766
0,361,11.28973,20.26592,6.71948,5.752416,3.913071,21.17401,19.68052,27.59856,9.612071,9.352425,9.787662,4.574158,12.16432,7.061543,5.270234,16.65405,12.5915,-3.084677,2.46721
0,362,5.007515,16.04832,0.08396095,-0.9070006,-2.733088,15.98488,14.79278,21.62082,3.913496,3.319676,4.512591,-0.6508203,5.171824,-0.2437914,-0.7946454,10.05489,5.566074,-9.463755,-5.18244
0,363,2.411057,13.73399,-3.681814,-3.377173,-6.427637,13.30628,11.80893,18.18343,2.503045,0.8828461,2.367196,-2.987969,1.592545,-2.721866,-3.874617,6.270635,2.051661,-11.26221,-8.51165
0,364,-3.454658,6.56351,-9.182788,-8.035941,-10.39477,7.793346,6.548763,14.00766,-2.476646,-4.420613,-3.448122,-8.062347,-4.16286,-7.625139,-9.319451,0.5674813,-5.345889,-17.3157,-12.42538
0,365,-13.1651,-4.892206,-20.35222,-16.46328,-18.69922,-2.803718,-4.807887,2.948023,-11.13753,-13.8606,-13.12096,-16.66283,-15.82529,-16.69588,-16.84801,-9.254678,-16.11328,-23.90553,-20.58833
0,366,-13.032,-6.155732,-20.87724,-15.26913,-19.31647,-3.254227,-5.687588,2.116029,-9.023658,-13.26111,-12.75251,-16.82864,-17.13432,-16.81639,-15.95979,-9.307704,-16.0053,-21.9297,-20.36378
0,367,-14.79494,-8.736322,-21.98917,-19.06508,-21.36674,-5.772746,-8.034836,0.08685909,-11.73888,-15.64308,-15.13659,-17.74542,-19.16557,-19.34312,-18.19048,-12.20669,-17.4741,-23.20804,-20.63041
0,368,-17.31649,-9.492481,-22.68239,-22.90436,-23.35903,-7.733414,-11.20613,-2.519682,-13.75457,-17.20555,-16.38958,-17.66713,-20.09711,-20.81325,-20.35635,-14.33039,-17.42656,-24.47027,-20.09976
0,369,-13.33438,-5.031004,-19.42105,-19.67567,-22.00437,-3.798774,-7.195744,1.410395,-9.56308,-13.29084,-12.63205,-13.95097,-15.56718,-16.97514,-18.63034,-10.11356,-12.08869,-22.08646,-16.29178
0,370,-9.867319,0.1432241,-15.68796,-16.46783,-19.85545,1.060622,-2.179592,5.87399,-3.689965,-8.224227,-7.747355,-9.615476,-10.27025,-10.79946,-14.9268,-5.844062,-6.272101,-19.96953,-12.50702
0,371,-13.52651,-0.770713,-17.38762,-17.92789,-22.50589,0.1056453,-3.641991,4.693767,-4.54062,-9.043208,-8.705183,-10.33852,-11.0179,-11.70669,-15.37035,-6.583838,-7.66395,-23.37745,-14.18613
0,372,-11.36054,2.282535,-15.65658,-17.76868,-22.25686,2.519275,-0.6830156,7.649086,-3.700657,-8.093488,-7.251647,-9.33699,-9.001661,-10.8395,-15.63492,-6.198483,-7.518552,-24.18639,-14.01747
0,373,-5.701887,7.579872,-12.8353,-14.48007,-20.48389,7.068133,4.297239,12.12562,0.3928566,-4.633307,-3.48112,-7.236764,-4.765939,-5.94609,-12.16308,-2.529355,-5.772991,-20.62875,-10.73324
0,374,-14.35684,-2.238139,-21.68844,-20.86489,-28.18229,-2.241747,-3.60346,2.286342,-7.64286,-12.46879,-11.64783,-13.34787,-14.06343,-13.62828,-16.52394,-10.76124,-14.13104,-25.52767,-16.72967
0,375,-14.34438,-1.50591,-18.77563,-16.77953,-24.71479,-0.2557848,-2.942211,4.771772,-5.803087,-9.965921,-9.695671,-11.79238,-11.38507,-11.82466,-12.54327,-7.587823,-12.59898,-22.30286,-14.81164
0,376,-17.32271,-2.523139,-18.31182,-17.44273,-23.99191,-1.70414,-5.141243,3.024033,-8.1014,-11.22934,-10.47829,-11.98098,-12.37787,-12.03947,-12.07257,-8.58932,-12.9749,-23.76637,-13.94156
0,377,-16.82902,-2.130572,-17.65467,-18.31491,-23.52754,-1.413169,-4.7218,2.745086,-7.119092,-10.38557,-9.762168,-11.22419,-11.35764,-10.63182,-10.29957,-8.7226,-12.64292,-23.25007,-14.18926
0,378,-11.31888,3.821494,-11.91636,-12.91893,-17.74822,5.583059,1.445072,10.56165,-0.2357078,-3.766302,-3.941304,-7.001785,-3.630486,-3.876799,-5.513639,-1.463166,-7.006932,-19.08595,-10.33752
0,379,-9.78611,6.555202,-8.476894,-10.86929,-14.91953,6.922587,2.342676,10.36671,2.020959,-1.234638,-1.230617,-4.943451,-0.2610702,-2.878616,-4.255662,0.575807,-6.01813,-16.79411,-8.264874
0,380,-13.38004,2.012592,-10.50961,-11.9196,-17.0533,2.496188,-1.332136,5.801993,-2.961312,-4.955968,-4.552849,-7.100953,-3.509411,-4.700785,-4.827358,-4.361666,-11.93419,-17.96896,-10.62213
0,381,-5.907606,7.874802,-4.876561,-3.914344,-10.37963,8.660291,4.044642,12.2658,3.110705,0.8224461,1.279007,-2.918189,2.360478,3.194453,2.490208,1.623413,-6.391269,-10.74092,-4.043073
0,382,-16.06137,-2.594403,-14.47803,-12.5257,-20.18931,-2.035086,-8.497309,0.9800444,-8.231591,-9.341298,-8.492693,-10.6694,-8.227014,-7.395034,-5.599811,-7.278677,-16.94076,-18.74756,-13.78017
0,383,-17.98275,-5.122946,-15.34093,-11.98986,-18.78848,-4.297757,-9.427888,-1.872678,-9.76216,-10.46349,-9.709259,-11.26127,-10.52589,-7.728851,-3.97748,-8.07813,-16.37203,-17.88632,-12.76318
0,384,-15.00088,-3.154287,-11.20197,-7.283892,-12.74703,-1.784193,-6.001166,0.9745982,-7.856929,-7.002489,-7.077488,-7.856276,-6.191261,-3.675658,0.2978099,-2.563447,-9.938489,-12.38138,-6.937559
0,385,-9.820935,2.518393,-4.808342,-1.618297,-7.387147,4.096403,-0.07157664,7.662206,-3.807238,-2.036008,-2.093203,-3.451457,-0.2766012,1.334011,4.980823,4.813717,-2.682521,-7.461443,-1.484948
0,386,-6.109024,6.946636,-0.8571115,1.09738,-4.887888,7.671537,4.398882,10.93508,-1.594254,0.7808924,1.267878,-0.7091547,3.390075,4.561313,6.777819,8.928851,1.456808,-6.303597,-0.01297442
0,387,0.3567841,13.11003,6.316302,9.075978,4.106015,14.07861,10.25994,17.15949,5.202467,7.50936,7.983244,4.87661,9.780392,10.52972,14.80512,13.25956,8.303383,-0.07719768,4.665278
0,388,16.77136,28.2452,21.45801,22.52266,18.89918,29.61089,27.84461,33.4836,20.61318,21.88358,22.17728,15.47997,25.11087,26.45279,29.37284,28.34635,22.83374,11.5709,18.59702
0,389,12.10687,21.75991,16.73289,18.91155,14.3846,23.86432,23.01942,28.63099,13.84604,15.98845,16.39123,10.9571,19.23113,20.48825,23.22902,23.58061,16.75879,5.005572,13.04231
0,390,1.41817,9.727629,5.581627,12.13794,5.912648,11.91987,10.4414,15.81318,3.114595,5.690028,6.290314,3.213892,7.222039,9.680788,13.827,11.02808,5.610511,-4.384777,2.057508
0,391,-9.510775,-2.073053,-4.61093,2.926453,-2.250677,0.4757632,-1.612798,4.189745,-9.202372,-5.495939,-4.356793,-5.667041,-4.78227,0.02690401,4.910359,0.8388202,-5.711441,-14.804,-8.242735
0,392,-1.725124,7.618347,5.830184,10.16646,6.702051,9.590406,7.198702,12.57269,-0.7396744,3.36362,4.825748,1.227069,5.551501,10.64662,12.65393,11.58238,3.774267,-7.906117,-1.140263
0,393,7.25578,18.1505,16.12951,16.57756,14.46461,20.09054,18.32989,23.83794,8.845558,12.71664,14.29175,9.488484,16.39439,21.6211,17.78403,21.03369,15.60312,-1.683747,6.62466
0,394,9.087838,19.25175,16.98255,16.39916,15.14849,21.55523,20.95282,25.74604,10.1717,14.11266,15.17928,10.32008,18.93869,23.70762,16.70711,22.72186,16.65586,-3.142311,5.965201
0,395,10.16111,20.152,17.52681,16.69178,15.06346,22.52569,22.84335,26.96683,10.35482,14.43663,15.75447,10.92727,19.35169,24.23544,16.40999,22.74414,17.57818,-4.486445,4.042789
0,396,1.985958,12.77368,9.237266,10.17607,7.921626,15.21382,16.06794,19.0575,4.00643,7.670647,9.051648,5.17019,11.32014,17.52962,10.24553,14.43565,9.286845,-11.0471,-3.445117
0,397,-3.476995,7.194224,4.475862,9.123572,4.451515,9.511855,10.49358,12.57404,-0.003817995,3.633885,4.891724,1.809907,6.490021,11.9584,6.594862,8.268689,2.403352,-15.20349,-7.520602
0,398,3.653075,13.27777,10.67738,14.9807,11.77974,15.06893,16.43448,17.60711,6.281243,9.080938,10.75022,5.703768,11.48548,16.89347,12.05714,12.41887,7.211385,-8.726306,-2.13854
0,399,9.449105,18.20043,14.39896,18.28402,15.35673,20.0379,20.68523,22.68782,12.45483,13.65347,15.21438,8.128736,15.94572,21.01922,13.76938,16.61893,10.407,-4.14773,1.622953
0,400,11.24233,20.15198,16.49051,18.458,17.13062,21.44132,24.17349,24.36032,11.84824,13.85257,16.0588,9.009037,16.43013,21.19941,13.6425,18.00645,12.95085,-3.2562,2.400108
0,401,16.05334,26.11481,20.17913,20.49401,21.27297,26.93832,29.49235,30.49236,16.36151,17.73098,19.98478,11.52328,20.59455,23.5708,15.63788,22.57675,18.06445,-1.34993,6.363714
0,402,14.03478,26.04657,17.94914,17.42258,17.04478,26.38196,29.04577,29.92398,15.46945,15.94646,18.7173,9.643638,18.15839,20.31723,12.87049,21.33201,16.01848,-5.771123,3.160833
0,403,8.243297,19.22854,11.23937,11.21947,10.54461,19.49998,23.06791,22.73553,8.7786,9.769916,12.43338,5.303417,11.97645,13.40832,6.407649,13.23671,8.765235,-11.47824,-4.897928
0,404,3.271782,13.70745,4.87731,4.728377,5.964407,14.17647,17.11343,17.90115,2.438865,3.483097,6.408464,-0.3754957,5.363794,6.211997,-1.393418,6.483447,1.438457,-16.51142,-12.29347
0,405,0.6661702,11.77907,1.404044,3.858002,4.198194,12.08366,15.10098,16.21596,-0.02309473,1.19234,3.895917,-2.142243,3.130811,1.436385,-4.251334,1.153874,-2.842329,-19.54768,-15.91473
0,406,2.216453,12.13153,2.025884,5.441766,7.34896,12.60882,15.29268,16.67332,1.200651,1.85628,4.587059,-2.315165,3.090398,1.415874,-2.806945,0.1599183,-3.610953,-17.90645,-15.16505
0,407,-8.213446,-0.1517847,-8.833536,-1.95229,-0.3186532,1.412227,2.408137,5.15741,-7.789345,-7.440725,-5.167784,-10.06601,-8.012318,-8.600514,-9.885909,-12.40964,-15.64225,-24.8719,-24.54119
0,408,-11.84341,-3.104817,-10.56231,-2.817816,-1.989617,-1.451409,-1.350627,1.617702,-9.437161,-8.844298,-6.760026,-10.47833,-9.911397,-9.067784,-8.935732,-15.06001,-17.18591,-22.75745,-23.79859
0,409,-5.671533,3.878663,-3.377103,1.281337,2.467561,4.807081,6.363,7.688966,-2.960129,-2.305421,-0.3865122,-4.211624,-1.938268,-1.66343,-4.675844,-8.130608,-8.81695,-17.16864,-16.32236
0,410,1.785064,13.63119,3.735918,6.043448,8.429443,13.64952,15.36288,17.44487,4.173541,4.722208,6.606238,1.591685,6.763214,4.855,-0.7660398,-0.2761506,-0.0561576,-11.80182,-7.963912
0,411,3.861242,17.43399,5.198013,5.910548,7.026922,16.72283,19.45501,21.07154,6.990768,6.987115,8.599678,3.771181,9.918782,5.684082,0.2913002,2.13605,2.571613,-12.05783,-4.427063
0,412,-13.66911,-1.246714,-12.12916,-10.83471,-9.966788,-1.673281,0.882049,2.054497,-9.95465,-9.08138,-8.154549,-8.666765,-6.360957,-11.11615,-15.03012,-14.89201,-15.92464,-26.51889,-19.51977
0,413,-18.14561,-6.08696,-16.41236,-12.61311,-11.11415,-5.901379,-4.977545,-3.11985,-11.95788,-12.0545,-11.25769,-12.48832,-11.17765,-15.29212,-17.3334,-20.07289,-21.99395,-27.3596,-24.27967
0,414,-14.20905,-2.51367,-11.21165,-8.711739,-5.439247,-2.215441,-2.220041,-0.5964856,-6.123299,-7.540303,-6.252172,-9.252217,-8.232882,-9.595762,-11.30916,-16.74038,-17.35625,-22.37859,-20.32936
0,415,-16.27534,-3.916673,-13.13519,-9.050926,-6.14657,-4.090664,-4.273508,-3.041923,-7.608919,-9.198886,-7.511133,-10.31173,-10.93345,-10.37792,-11.11881,-19.14859,-18.46075,-21.98716,-19.72676
0,416,-10.46441,1.586846,-8.166467,-5.241583,-1.414196,0.7890312,2.620943,2.122499,-3.678576,-4.490867,-3.239921,-5.775589,-4.647334,-5.004339,-5.530348,-13.82876,-12.2202,-16.48508,-12.55484
0,417,-6.369133,5.838713,-6.175603,-5.899358,-0.7466456,4.543539,6.472139,6.429098,-0.8660354,-2.199852,-0.907679,-4.167358,-1.435785,-1.71043,-4.086267,-10.46367,-9.175479,-13.67458,-8.916306
0,418,-7.334581,7.307537,-6.720919,-7.691936,-2.955066,4.905497,5.769464,6.469723,-0.6671583,-2.221707,-0.8329386,-4.06857,-0.8821285,-2.731453,-5.34236,-10.21747,-9.291802,-13.27002,-7.512299
0,419,-0.0675132,12.64898,0.1044256,-2.757753,0.2878023,11.06643,12.3979,14.27705,4.29503,3.184176,4.191545,1.161392,6.017616,2.972339,-0.4556457,-2.900169,-2.125745,-7.785609,-1.152165
0,420,6.105396,18.5182,4.826869,0.08648805,4.728856,17.58414,18.83231,21.90003,10.10033,8.452862,8.836438,4.235353,12.20535,7.569375,3.558787,4.176877,3.373197,-5.143224,2.74831
0,421,7.175265,19.5515,5.697973,0.7238107,3.823209,18.83122,20.42695,23.42829,11.43685,9.242546,9.790767,4.665045,12.80437,8.111745,3.326562,5.272695,3.650778,-4.063777,2.940452
0,422,-6.703919,6.153592,-9.030697,-10.6743,-10.61722,4.78261,5.733226,8.493903,-2.362613,-4.350918,-2.992226,-5.513528,-2.384075,-4.815634,-10.17467,-9.829976,-10.73144,-14.77555,-10.13038
0,423,-13.68686,-1.252181,-16.40483,-14.07503,-16.45249,-3.062416,-2.88393,-0.8264278,-8.455387,-10.29694,-8.914986,-9.970078,-9.422441,-11.32228,-13.80207,-18.83059,-19.19154,-18.76195,-16.98441
0,424,-12.72401,-0.8534616,-14.49075,-12.14616,-13.04652,-1.969068,-1.36845,0.1013813,-6.299786,-8.142753,-7.377911,-8.831884,-7.080742,-8.681766,-10.69347,-17.52645,-18.72904,-14.91015,-14.69419
0,425,-10.30365,1.604333,-11.83655,-9.227126,-11.06563,0.3696024,0.984523,2.694416,-4.390852,-6.106134,-5.054121,-6.206346,-5.331498,-6.621852,-8.122528,-15.64614,-14.40758,-14.35278,-12.40173
0,426,4.572522,16.37357,2.771404,1.456976,0.1377118,14.8591,17.23304,17.47523,10.38968,7.397212,8.502684,4.259479,9.212667,7.558424,3.677015,-0.6809218,0.1021691,-2.970989,0.9817241
0,427,11.43602,23.64007,6.943935,2.270748,1.592935,21.24502,24.05887,23.91272,16.24937,12.29703,13.42548,7.519304,15.40326,12.0187,5.296154,5.385579,4.980686,-0.5223247,3.46798
0,428,3.387475,18.02112,-0.440218,-4.089638,-6.416943,15.67335,17.48277,18.54436,10.47754,6.071258,7.502622,2.154772,8.485098,5.134691,-2.873104,-1.39516,-2.543715,-7.948756,-3.885468
0,429,-5.88416,8.627354,-9.080504,-11.0068,-13.75031,6.370314,8.005147,8.199232,1.779165,-2.334927,-0.4210376,-4.689623,-1.163382,-2.272538,-9.885958,-10.83728,-12.57127,-15.1931,-13.77627
0,430,-11.64058,1.771694,-13.07678,-13.06639,-16.90952,0.4236204,0.8434904,1.996154,-3.492038,-7.434167,-5.042997,-8.862864,-7.72838,-6.838002,-12.46845,-16.67056,-19.28146,-18.47594,-19.0631
0,431,-12.74219,-0.8746349,-13.33796,-10.03007,-15.22052,-2.07541,-1.334348,-1.238035,-4.31948,-7.752968,-5.648653,-8.476525,-8.553741,-6.938598,-11.74195,-18.5695,-19.93535,-17.78158,-18.27315
0,432,-14.23201,-4.243769,-14.08871,-9.201217,-15.07193,-5.097126,-4.545872,-4.662838,-6.436281,-9.568454,-7.341351,-9.622767,-11.4343,-8.123856,-11.00578,-19.67069,-21.0837,-15.60505,-16.94828
0,433,-10.0399,-1.01254,-9.743329,-5.473992,-10.7739,-1.936072,-1.735783,-1.285809,-4.054754,-6.653069,-4.229561,-6.757411,-8.2932,-3.607381,-5.783597,-14.84074,-15.83539,-10.47277,-10.73203
0,434,-11.20047,-2.77696,-11.16467,-7.853686,-11.46709,-3.463578,-3.112873,-2.558078,-5.801136,-8.741853,-6.102176,-8.904247,-11.5261,-5.504381,-7.056098,-14.08874,-15.48471,-10.76674,-9.677562
0,435,-7.266684,2.384526,-6.745659,-4.659706,-8.404048,1.012296,2.361623,2.1479,-3.676112,-5.76872,-2.373086,-5.931273,-7.414366,0.6717565,-3.987917,-9.023601,-10.6874,-6.845047,-5.176094
0,436,-0.297502,10.15241,1.071435,1.778615,-1.059532,7.904215,10.40533,8.882039,1.247545,0.07664497,4.177201,-0.5868034,-0.6655763,9.754519,3.399605,-0.4562869,-1.785348,0.7559545,3.732684
0,437,2.587281,12.16131,3.834134,4.948938,2.445529,9.84581,12.33118,10.70262,3.264755,2.353132,6.309899,1.339215,1.502697,10.98529,6.557586,2.492052,1.603391,3.231218,6.543235
0,438,4.682519,12.50711,5.849922,9.05964,7.74784,11.38935,12.86805,12.02472,5.17365,4.514039,8.316179,2.646729,2.731268,15.49895,12.45747,4.302576,4.211241,6.619033,7.297657
0,439,5.857078,14.29796,7.821788,14.02182,13.05413,13.42859,15.07161,14.16219,5.930217,7.130188,10.21231,5.387037,6.344778,18.47498,18.29368,5.768248,7.308655,9.706395,9.323423
0,440,9.286493,15.7288,10.14855,17.08215,16.73937,15.03917,17.05361,15.49716,7.815385,8.700101,12.20732,6.293072,7.131246,20.97583,21.24536,7.235133,8.939899,11.07036,10.11605
0,441,6.992907,13.42205,10.25818,16.26306,18.11217,12.32058,14.19747,11.7403,4.594803,6.494022,10.86777,4.849783,4.698328,20.83157,20.48591,6.051601,7.524585,8.33183,7.98167
0,442,-1.312259,6.019752,5.594612,12.25102,12.83113,5.095535,6.786101,4.445334,-3.232374,0.2419031,4.953302,1.478584,-1.662958,15.17933,15.02542,-0.05861085,2.662723,0.8511359,2.568016
0,443,5.838166,11.82275,12.20029,18.79279,20.85913,11.07308,13.02117,10.7397,2.439386,6.381573,10.62811,6.321222,5.448423,21.93967,20.2893,7.268744,10.30706,7.174654,9.441077
0,444,5.600114,11.25765,12.01451,17.30125,20.82532,9.751728,12.00344,8.770503,0.7146953,5.039316,9.805252,5.44925,4.220628,21.44571,19.80159,6.686911,9.455268,6.697353,9.194564
0,445,10.12836,15.6612,17.31827,22.3234,25.30687,13.75489,16.39572,12.39756,4.366457,9.49574,14.17138,9.813293,9.435645,25.40875,25.74019,11.16196,14.65584,11.93845,13.41015
0,446,11.89957,16.4684,19.95046,26.18581,27.45815,15.13535,18.28848,13.96859,5.537202,11.75607,15.82395,11.76881,12.85204,27.36375,27.72515,14.27352,16.13416,14.7047,14.58033
0,447,13.43251,16.72848,22.06599,30.04931,30.05901,15.7611,18.26949,14.67983,5.992639,12.89759,16.97657,12.68737,14.35314,28.88371,29.03228,15.65192,16.25447,18.91616,16.31324
0,448,11.7886,14.58238,19.17429,29.27797,29.6503,13.27494,15.54215,11.90598,3.462475,10.96135,14.59662,10.62957,13.00294,26.11273,27.27925,13.16218,12.56601,18.20685,14.63672
0,449,6.358743,9.746554,13.73683,25.24158,26.99174,8.788677,10.8649,7.795426,-1.820045,6.101444,9.713564,6.329154,7.805784,21.66829,22.15438,8.212915,7.658718,12.73108,9.777181
0,450,5.306918,8.336726,13.98004,23.99458,26.5778,7.402506,9.44804,6.457783,-2.576529,4.585902,8.941913,5.383144,4.940845,19.34154,20.34473,6.370764,6.944655,10.14774,9.41898
0,451,3.305023,6.241119,12.57897,21.16932,23.69384,5.442531,6.84811,4.347666,-3.932919,3.203094,7.277209,4.440686,3.604739,17.41928,19.32253,5.878498,5.944544,8.734371,8.403569
0,452,3.986851,6.261759,13.24295,19.65147,24.40895,5.135434,7.370287,3.241784,-3.141523,4.08937,7.471014,4.800289,5.042272,16.43174,19.65681,7.63046,6.816633,8.877502,8.56694
0,453,-7.185144,-5.10395,3.077343,11.75002,16.68915,-6.16504,-2.82884,-8.456559,-14.80994,-5.813625,-2.792078,-2.39231,-4.930741,5.288062,11.4429,-3.68333,-4.160422,1.124865,-1.190635
0,454,-2.763535,-0.1535039,7.766137,18.51611,21.95695,-1.411761,0.5667037,-4.316837,-8.589652,-0.07364099,2.546509,1.875851,0.8238115,9.99472,16.5611,0.647939,0.363032,8.273307,4.154029
0,455,5.734491,8.216033,13.71527,23.4249,27.97774,6.364959,8.333924,3.52112,-0.4816904,7.07165,9.293486,6.843589,8.931995,16.43207,22.13664,7.369541,7.05513,12.56394,10.01357
0,456,5.8763,5.991226,12.05256,20.07588,24.67035,3.227706,5.492996,0.3243814,-4.204233,3.741208,6.481881,4.573912,6.682621,13.35191,18.38048,4.636278,2.563996,9.612894,8.163321
0,457,-1.52396,0.04625256,5.579994,14.50708,19.58355,-2.916687,-0.8422366,-6.815608,-9.848559,-2.325379,0.9563013,-1.47901,-0.8095493,7.226871,13.26038,-1.340449,-5.663712,5.227365,1.770653
0,458,3.420475,6.258442,11.05331,17.31121,23.3149,3.343939,4.790522,-0.02722957,-3.397204,3.319547,6.294089,2.581918,5.736295,11.4708,14.79783,4.411036,-0.1180366,8.288777,5.684121
0,459,1.548237,4.549612,9.323665,13.12218,20.28294,1.557107,3.098039,-1.555725,-4.964739,1.637876,4.388373,1.737818,4.547602,9.59711,11.35159,2.681579,-0.9564068,5.129179,4.371596
0,460,11.04492,14.20653,15.07253,18.17245,26.03584,10.83389,11.95824,8.404083,4.2138,9.601235,11.63156,7.231545,13.37612,16.75068,17.06164,11.28894,8.076638,13.13171,12.72866
0,461,13.09789,16.65512,14.47722,16.59472,24.91376,12.14817,14.71402,10.06076,4.363201,9.788785,11.69055,7.289667,14.98671,16.50245,15.48991,11.95819,8.084032,12.70675,14.1131
0,462,11.12955,14.4235,10.55329,12.73595,20.8232,9.756424,13.35226,7.456346,2.678455,7.560252,9.059394,5.076012,12.79775,13.2744,12.67685,8.598165,4.272367,9.743755,10.27357
0,463,11.93704,14.32502,9.413273,12.9185,19.15335,10.4826,13.78619,8.356712,5.483142,8.752116,9.622231,5.371492,12.80675,14.16899,12.28595,9.89579,6.082025,9.667712,10.49673
0,464,16.1739,17.5973,11.07151,13.15738,19.67497,13.77376,17.29414,12.2531,9.751631,11.58143,12.14499,7.675913,15.57367,16.78376,12.774,11.78043,9.843358,11.45899,13.74375
0,465,15.43917,16.54759,8.623823,5.465795,13.82139,11.64463,15.46068,10.3546,6.161309,7.692728,9.117432,5.130891,12.06559,12.85661,7.749946,9.671434,7.785816,8.463795,11.27667
0,466,8.346488,10.37726,1.441191,-3.900551,5.362862,4.728513,9.834401,3.717148,-1.962566,0.2400659,1.851738,0.2844927,4.953618,5.348543,0.1531928,2.76354,1.945199,2.862501,7.003754
0,467,-1.689977,-0.4511623,-9.534435,-13.44573,-5.278368,-5.546717,0.581145,-6.052201,-13.02737,-9.586129,-8.575583,-7.145308,-4.4564,-3.442622,-8.424612,-5.948027,-7.85504,-5.932037,-1.545576
0,468,-2.200722,-0.9588378,-9.920319,-12.33521,-3.961719,-5.825434,0.0583932,-7.127828,-10.51189,-7.789624,-7.854187,-6.280102,-3.054614,-2.197291,-7.077766,-5.147409,-6.779665,-4.019254,0.992501
0,469,5.943924,9.147746,-1.745513,-5.92584,2.283006,3.869064,9.232526,2.655993,-1.019232,0.8721955,0.7689995,0.4401658,6.10958,6.849147,2.141413,4.216736,2.908076,3.618644,9.793874
0,470,4.115541,7.753986,-2.977689,-7.603609,0.3250721,3.099882,8.345363,2.467992,-1.841602,-0.470586,-0.3102251,-0.4039051,3.888705,5.797836,0.3518756,2.084304,2.080703,3.652952,8.515571
0,471,2.663147,6.610157,-5.780862,-9.075085,-1.857199,1.745229,6.749916,1.164413,-2.58621,-1.15539,-1.907458,-1.086337,4.09089,4.266474,-1.239705,0.6115222,0.335534,2.277907,8.176102
0,472,-2.171419,1.235075,-11.15236,-14.54538,-8.336527,-3.68374,1.004527,-4.984238,-6.573967,-5.693797,-6.460753,-4.915329,-0.9311799,-0.5055944,-6.223383,-4.471263,-5.659885,-4.236037,1.764067
0,473,-3.110334,0.6747729,-13.77646,-16.06613,-11.74441,-4.420301,-0.4395433,-6.26017,-6.022308,-5.946394,-7.095552,-5.63126,-0.9732306,-0.1445288,-7.198866,-5.961004,-8.02474,-5.447514,-0.4266168
0,474,-4.078014,-1.688453,-14.98635,-18.31695,-14.0589,-6.591511,-3.277665,-8.717004,-6.580934,-7.072073,-8.304958,-5.983664,-2.370719,-0.6862285,-9.49789,-8.405406,-9.131615,-6.350383,-1.723225
0,475,-12.95365,-8.994138,-21.10895,-24.82468,-21.50904,-13.5905,-10.85045,-15.80885,-12.94637,-13.06383,-14.40923,-9.48779,-9.073174,-7.623442,-14.44512,-15.94165,-14.53971,-12.56813,-7.362078
0,476,-11.33173,-5.502582,-17.71871,-23.22057,-19.16435,-10.58844,-6.835776,-13.46236,-9.165051,-9.531503,-11.03205,-6.828154,-4.838491,-3.715305,-13.3946,-12.23561,-11.32503,-10.29273,-4.259635
0,477,-13.17043,-7.220446,-18.44141,-24.60185,-21.41453,-11.25498,-7.67205,-13.61921,-8.999928,-9.492503,-11.71192,-6.920497,-4.157582,-3.164341,-15.97898,-11.94752,-11.95444,-12.24617,-5.916933
0,478,-25.47882,-20.20275,-30.65983,-35.83908,-33.109,-23.64086,-21.29966,-26.21827,-20.93693,-20.6688,-23.17907,-15.08988,-16.06256,-14.73025,-27.85073,-23.90207,-22.64364,-21.95558,-18.43922
0,479,-20.75273,-15.86222,-25.37832,-28.2415,-26.73866,-19.46606,-17.99965,-22.87126,-15.50191,-15.1464,-17.90305,-10.49484,-10.56106,-9.414348,-20.56214,-20.06173,-18.01426,-15.37616,-13.26424
0,480,-11.97918,-8.317015,-17.48694,-20.70487,-19.5871,-12.67913,-10.91776,-15.9214,-10.09892,-8.795494,-11.32457,-4.764455,-2.179289,-0.5314316,-12.58093,-13.18019,-11.87187,-7.224494,-4.568954
0,481,-17.53595,-12.36918,-21.63645,-22.2959,-21.88924,-17.04036,-17.21329,-21.12591,-13.87998,-12.55078,-14.75371,-8.073701,-7.285506,-4.480613,-14.21345,-16.92561,-15.94029,-8.912638,-6.409974
0,482,-9.441441,-5.907479,-15.52154,-16.10895,-14.90666,-10.32225,-10.71904,-15.12449,-4.989003,-5.371359,-7.922946,-3.88381,-1.200356,2.449212,-7.396145,-8.355251,-8.188709,-1.593098,-0.03309397
0,483,-7.163729,-4.478076,-13.61156,-16.62166,-14.62759,-8.433815,-8.106654,-12.7725,-2.760098,-3.986962,-6.538663,-3.186928,-0.1352392,3.522008,-7.283165,-5.351788,-5.774476,-1.865255,1.123746
0,484,-13.25137,-10.17046,-17.00539,-20.58922,-18.2304,-14.02213,-12.62476,-18.62141,-8.227818,-8.464778,-11.04412,-5.948284,-4.472204,-1.163723,-11.06985,-10.22483,-10.48408,-7.541348,-2.990648
0,485,-16.01774,-12.19419,-18.88092,-21.19573,-19.44524,-16.43432,-15.48653,-21.74673,-10.23082,-9.720114,-12.6715,-6.609307,-5.387465,-2.551713,-10.76112,-11.4936,-11.87093,-9.050451,-3.633656
0,486,-10.89964,-7.666416,-14.00115,-16.38523,-13.83273,-11.21842,-9.690839,-16.37883,-4.551802,-4.463916,-7.91277,-3.451904,-0.07438761,2.818897,-6.203403,-4.848026,-6.503303,-3.896511,0.6739604
0,487,-10.96229,-8.989328,-13.91106,-16.65477,-12.63874,-11.77064,-11.8243,-16.88783,-3.879762,-4.444118,-7.964893,-3.312028,-1.362614,1.608263,-7.05433,-6.054944,-5.071304,-4.998157,-1.172656
0,488,-9.232348,-8.050477,-10.75598,-11.99646,-9.539713,-10.34763,-10.44061,-15.59625,-1.667371,-2.219793,-5.564689,-1.219874,0.3032625,4.361369,-4.570324,-4.545048,-3.161188,-0.5136151,1.560605
0,489,11.19568,12.38701,8.118478,7.667231,11.53209,9.358437,10.02704,3.55785,18.35036,16.70715,13.1483,11.80676,20.06233,22.52589,14.50104,15.40782,14.71471,17.48571,19.44285
0,490,21.18849,22.46768,15.26922,14.99761,20.02893,19.0766,18.67927,13.80952,26.67332,24.50709,20.91073,16.83343,28.47188,29.46824,22.35891,24.12028,22.71229,25.03087,26.18067
0,491,20.3844,21.7695,12.72519,12.4866,18.61187,18.19948,17.83366,13.35687,24.93398,22.17005,19.04307,14.744,24.81802,26.63927,22.04766,22.17743,22.04938,23.15055,25.40598
0,492,17.72316,18.38451,9.110245,10.45708,15.98703,14.69314,15.87478,9.260846,22.11043,18.97619,16.07802,11.7073,20.42023,23.40169,18.84475,19.97822,19.33131,18.07415,21.73421
0,493,16.61292,17.54578,8.718163,10.04343,16.6595,14.1351,15.47166,9.117564,20.72638,17.811,15.31901,10.74219,19.10004,23.30332,15.45809,19.21176,19.08288,16.06605,20.16036
0,494,17.22665,17.81268,9.782984,12.14204,18.95521,14.65916,16.93323,9.901036,19.48808,17.92195,15.68338,11.75195,19.24448,24.66434,17.47188,19.7047,21.44416,17.41497,19.85596
0,495,12.04553,11.37911,4.799069,9.536875,14.98562,9.031393,10.70164,3.810081,14.61634,13.30973,11.06953,8.071535,13.36755,19.98834,14.52546,14.49346,16.35753,13.39965,12.95286
0,496,18.44201,19.28465,12.11362,17.4782,21.93495,16.40337,17.71974,11.04388,20.93622,19.79329,18.10959,13.12186,20.46018,27.22824,21.03905,21.08475,22.40042,19.31186,18.52922
0,497,12.72449,13.51009,7.52738,13.26567,18.19737,10.95823,12.04268,5.400949,15.40784,14.93643,13.23435,9.166069,15.47928,22.61589,15.74231,16.85743,17.28875,14.48569,13.15687
0,498,10.64189,10.28643,6.484691,11.08776,17.39449,8.495556,10.14665,3.369733,12.64608,12.65006,10.89007,7.117909,13.49767,21.05449,15.0268,14.88018,13.64892,11.70149,11.04079
0,499,7.315263,7.550789,2.11171,8.998826,14.13023,5.626218,6.392345,0.518913,9.195872,8.962249,7.479417,2.911185,9.131353,16.05296,10.63801,12.65409,8.801126,7.833916,6.812944
0,500,5.378098,4.99846,0.01196966,6.80379,11.85829,2.932591,5.052129,-2.342403,5.786281,6.091192,4.989427,1.162389,5.791235,13.07211,8.217171,10.55326,7.461984,5.390015,3.509588
0,501,6.757578,6.420683,2.940737,9.599455,15.63207,4.492118,7.626449,-1.000656,7.309477,8.381402,7.233577,4.133538,8.231333,16.62428,10.50479,11.67076,11.59252,8.483944,5.590236
0,502,12.63193,12.14455,10.32819,16.38791,21.25939,10.82993,13.24271,6.11885,13.23109,14.38824,13.32304,9.537525,14.64996,23.36041,16.91296,18.03346,18.61187,14.23104,12.03607
0,503,7.245914,7.824531,4.957923,11.75695,15.76601,6.192432,7.542386,1.318895,8.314923,9.77499,8.730941,5.862985,10.20698,18.69899,11.91935,13.54438,13.36388,9.314106,7.456449
0,504,8.310916,8.197104,6.356982,12.54972,16.88059,7.257166,9.344992,2.555438,10.47672,11.20575,9.851891,6.006156,11.65359,19.34961,11.32484,14.66225,12.53635,9.614396,7.181899
0,505,7.690222,7.310154,4.303054,10.4362,16.02119,5.778749,8.691391,0.6507618,9.373385,9.811811,8.405559,4.442099,10.29751,17.05357,8.971159,12.34715,10.03724,8.230804,5.433654
0,506,3.473352,2.766711,0.7543204,9.472527,14.15471,1.971639,3.816357,-2.938705,6.226803,7.094122,5.01362,2.080109,7.372181,13.4376,7.559982,9.10101,6.164052,5.896798,3.406712
0,507,-1.796141,-2.767663,-3.432161,5.662996,10.99543,-3.361575,-1.159844,-8.419594,0.7915307,1.979272,0.2806365,-2.043106,1.486745,8.130705,4.825768,3.183397,-0.3104708,1.370263,-1.243902
0,508,-3.565992,-3.255031,-4.022039,3.118066,8.537245,-4.132136,-2.448496,-8.960464,-0.9331616,0.9114055,-0.6442881,-1.59608,1.24889,7.278468,4.055908,0.7560434,-0.8760356,0.2693313,-2.766641
0,509,1.084368,0.934126,0.8805971,4.549942,11.89131,0.1253306,3.326841,-4.237483,3.604128,5.371374,3.416563,2.955681,6.940559,13.03473,6.420874,4.506387,5.222059,3.110898,2.06945
0,510,0.5131203,0.9050129,-1.53588,3.123893,10.44408,-0.2933865,4.076352,-4.667716,3.151961,4.704739,2.432774,2.55894,6.10725,11.41725,5.681155,2.675056,5.188978,1.007287,0.6174471
0,511,4.336243,4.304838,0.3676169,3.055153,10.75421,2.518962,6.502752,-1.720029,5.253558,6.309913,4.401759,3.632535,8.140509,12.06622,6.147189,4.683821,6.80238,1.483629,0.6597208
0,512,-9.505516,-9.571191,-13.94973,-10.04727,-0.9665028,-11.60934,-8.627662,-16.25791,-9.604522,-7.339123,-9.301186,-7.657465,-5.576562,-3.037091,-7.303802,-9.348154,-9.108268,-10.18788,-13.32882
0,513,-14.17455,-13.51982,-16.30879,-10.52096,-2.191756,-14.46808,-12.54948,-18.8352,-11.49185,-9.831294,-11.44587,-9.404311,-10.14711,-5.105028,-8.88023,-14.01277,-11.56648,-10.51252,-15.01893
0,514,-9.610172,-9.581604,-12.24907,-5.849239,3.3934,-10.87554,-9.114635,-16.11327,-6.292964,-5.69101,-7.180585,-7.139869,-6.757941,-1.19666,-4.000183,-10.45593,-8.81392,-6.079901,-10.45231
0,515,-7.913481,-10.83264,-12.83337,-4.431458,2.635324,-11.63344,-9.823204,-16.01216,-6.971719,-5.990669,-8.143471,-6.81477,-6.690665,-3.597591,-3.694152,-11.53921,-9.434849,-4.392794,-10.06345
0,516,-10.41377,-14.34371,-15.25955,-8.067823,-0.7142184,-14.95252,-13.46625,-18.9176,-10.61376,-9.488702,-11.52104,-9.704073,-10.08984,-7.860281,-6.860212,-14.24615,-13.75182,-6.70536,-12.31561
0,517,-7.314655,-10.60558,-12.01497,-6.211158,1.081076,-11.42572,-9.073277,-15.33752,-6.900169,-6.07531,-8.208356,-6.842972,-5.798884,-3.454444,-4.843218,-11.33619,-10.81969,-4.44944,-9.247552
0,518,-6.00304,-8.629415,-10.62099,-6.368701,1.543497,-9.777519,-6.581114,-13.92313,-4.681403,-3.979956,-6.538263,-4.819268,-2.958854,-0.9391963,-3.641052,-9.723144,-8.423986,-2.36497,-6.746665
0,519,5.08602,3.534838,-1.936478,-2.082941,8.916055,1.958251,5.977235,-1.583626,6.192523,5.286685,2.851233,1.47787,6.976466,9.514697,1.925993,2.099549,3.605075,3.07426,1.28057
0,520,-5.353421,-6.476528,-12.95661,-15.57442,-4.427502,-8.037577,-4.697269,-10.77455,-4.534544,-5.129268,-7.834324,-6.381946,-2.764819,-2.302862,-10.87604,-7.835447,-7.085495,-7.732564,-8.70813
0,521,-12.05109,-13.77911,-19.19878,-20.44123,-10.41178,-15.04231,-11.97809,-18.21424,-10.10876,-10.5121,-13.63655,-10.42182,-8.325767,-7.634808,-15.42486,-15.07304,-14.65929,-11.54757,-13.68012
0,522,-11.74086,-14.27275,-20.75164,-19.59392,-10.41017,-15.54199,-12.1054,-20.13338,-7.367843,-9.352197,-12.9661,-10.41736,-8.730532,-7.24376,-14.33695,-16.12102,-14.98612,-10.84575,-14.94127
0,523,-11.30133,-13.58411,-21.45501,-20.35743,-10.47694,-15.03936,-13.39701,-19.9815,-6.387767,-8.834785,-12.59291,-10.40862,-8.177169,-6.534047,-14.06786,-16.2784,-14.85643,-11.18995,-15.85052
0,524,-10.13127,-12.86563,-19.5426,-21.49626,-12.04693,-14.2097,-11.5717,-18.87274,-5.264414,-8.207721,-11.58689,-8.740824,-7.900466,-6.426095,-14.06635,-16.56703,-13.0258,-10.03971,-15.5084
0,525,-15.98001,-18.63908,-26.15496,-29.18898,-20.71161,-20.2333,-18.06911,-24.97218,-10.68907,-13.18977,-17.44142,-12.13835,-11.51584,-11.03529,-20.35757,-21.09055,-18.37922,-14.10712,-19.1193
0,526,-14.74742,-16.25537,-23.83345,-29.93124,-21.76414,-18.05941,-15.50786,-22.61088,-8.656447,-11.15805,-15.64133,-10.18173,-8.268382,-9.070227,-19.79586,-17.89668,-16.1402,-13.28517,-17.00153
0,527,-3.324285,-3.61683,-13.24335,-23.79908,-14.84079,-5.708671,-2.732766,-9.334214,2.792315,-0.6693203,-5.319842,-2.079746,3.965859,1.305858,-12.37773,-6.131053,-4.696239,-5.932533,-7.918026
0,528,4.72064,4.901108,-7.046854,-20.3911,-11.62664,2.274968,5.145479,-0.9423473,11.50436,6.024494,1.492748,2.662029,10.90111,7.044003,-7.406147,0.2830867,1.485238,-2.68864,-1.548504
0,529,-8.677941,-9.333022,-19.80188,-30.95734,-24.38095,-11.55709,-8.940462,-15.2297,-0.821936,-6.497013,-10.74048,-6.903705,-3.883441,-7.26325,-17.65664,-13.93381,-12.45698,-14.18206,-13.41019
0,530,-10.98163,-12.1862,-22.53515,-30.43619,-25.92281,-14.23253,-11.17589,-18.16042,-3.109257,-8.865607,-13.07741,-9.928375,-6.880604,-10.56091,-19.71928,-15.85332,-17.48014,-14.26956,-15.57759
0,531,-19.47915,-19.11466,-28.23043,-32.9948,-30.86868,-20.41562,-19.05473,-24.40326,-8.883109,-14.06976,-18.43638,-14.24942,-12.73723,-15.64997,-24.08913,-21.01101,-24.11595,-18.5105,-20.15158
0,532,-12.75201,-13.25544,-23.27067,-29.16795,-26.67235,-14.57813,-14.32458,-17.65577,-4.446038,-9.820536,-13.97557,-11.24143,-7.574173,-10.49535,-19.06364,-15.36894,-19.66881,-15.40718,-15.35926
0,533,-11.7372,-13.31161,-22.87926,-31.28002,-27.75253,-14.30685,-12.68585,-16.64498,-4.523466,-9.958729,-14.30031,-10.87925,-7.254826,-11.71732,-20.91329,-15.8884,-19.1862,-16.26356,-16.55816
0,534,-7.67976,-6.365586,-16.7256,-25.29048,-24.37029,-7.845967,-6.014111,-10.64298,2.030492,-3.326756,-7.831264,-5.122867,0.2265072,-6.208647,-16.63991,-9.547385,-12.49874,-10.03981,-12.29408
0,535,5.306068,8.140644,-3.203768,-13.52006,-11.81962,6.115559,8.21528,3.584368,14.93398,9.157368,4.922826,4.431289,13.73836,6.67899,-4.287271,3.894642,0.6325724,2.145468,0.4941937
0,536,-4.389539,-2.178335,-11.08621,-19.59423,-18.57566,-3.604819,-1.372971,-6.02844,5.305161,0.3311351,-3.5038,-1.727706,3.940621,-1.045871,-12.96757,-5.885387,-8.06455,-6.375323,-7.317781
0,537,-12.28848,-10.70114,-16.98045,-23.51573,-23.0757,-11.40741,-9.274069,-14.24927,-2.809684,-6.241956,-10.13451,-6.958915,-2.656697,-6.249844,-16.54772,-12.15543,-16.57385,-9.903616,-13.83101
0,538,0.7613713,1.544694,-6.050791,-12.50479,-10.28525,0.5594056,3.561288,-2.114432,9.114349,4.976829,0.7896731,0.8477004,9.448774,5.570113,-5.312352,-0.5942516,-5.633763,-0.5589927,-2.735513
0,539,4.846502,6.519863,-2.249878,-7.664137,-5.432611,5.622854,9.111249,3.82031,12.94211,8.938337,4.679013,3.715827,14.17525,9.480134,-2.324205,2.830874,-2.160959,1.586845,0.6633388
0,540,2.296546,3.609989,-4.573835,-7.870942,-6.567342,2.980439,4.964011,1.096416,9.77606,5.800932,2.314897,0.5641053,10.04307,6.273583,-4.97485,-0.5452066,-6.965462,0.1967075,-3.631309
0,541,-2.754458,-1.499207,-9.664961,-9.490949,-8.836328,-2.44372,0.2124554,-5.124669,4.737362,1.240862,-2.183481,-3.195985,4.230418,0.8965577,-7.695604,-4.88217,-11.13002,-3.391943,-6.987735
0,542,-1.294408,-0.04332385,-6.310972,-5.700175,-5.392174,-0.2909505,2.552727,-2.333294,6.406753,3.864931,-0.05143501,-0.2361262,7.269739,3.196146,-2.346021,-2.297523,-7.382145,-1.453861,-3.440134
0,543,1.572645,1.905314,-1.650126,-1.92191,-0.904155,1.962938,5.080711,-0.5646229,9.185574,7.001603,3.253917,2.871062,10.21924,6.294903,0.930494,0.2420606,-3.471719,1.050612,-2.351692
0,544,-0.02535454,1.957224,-1.794577,-1.155343,-1.241485,2.056107,4.998663,-0.4862331,9.164651,6.96974,3.356539,2.709105,9.904961,5.860555,0.01220999,0.2305085,-3.824902,1.42675,-2.537494
0,545,2.897249,7.53516,5.945296,5.326461,3.92212,7.569554,11.4904,4.92297,13.61257,12.219,9.317579,7.528643,16.02232,12.9521,5.075593,6.133985,1.063653,6.266986,2.471717
0,546,1.789738,4.937302,5.08782,5.243352,3.236938,5.408566,8.684103,2.8967,11.55936,10.42347,7.744236,6.220222,14.07482,11.39867,3.110961,4.148242,-1.318219,3.230065,-0.2938781
0,547,-2.641687,-1.342852,-0.48315,4.216277,0.7292194,-0.1398956,1.295988,-2.701971,5.557536,5.579288,2.686912,2.299035,8.815289,6.687613,0.5671394,-1.390077,-7.092437,0.2659632,-6.933736
0,548,0.6806437,1.867687,4.943634,8.852111,5.567946,3.06961,4.115654,-0.061248,8.774013,8.598899,6.728322,4.577405,11.05675,9.829659,4.773871,1.165979,-5.024873,3.698813,-5.531845
0,549,-0.4025039,1.1953,4.861677,9.271896,6.798876,2.448009,5.582547,-0.6068668,7.74888,7.585519,6.11638,3.203277,9.396906,9.389761,2.896483,1.707489,-5.514582,2.677886,-4.911469
0,550,-10.69717,-9.608583,-5.544209,0.178703,-1.759657,-8.692706,-7.43031,-12.08773,-3.364338,-3.299432,-4.043788,-5.112909,-3.024579,-2.522106,-8.201768,-9.648964,-15.6845,-9.201654,-15.17567
0,551,-23.12482,-22.41638,-16.80933,-7.534526,-10.59357,-20.56636,-21.14132,-24.16884,-14.67988,-13.28732,-14.74401,-12.66989,-13.65273,-13.88245,-17.22531,-20.8501,-26.47916,-17.58893,-26.32525
0,552,-21.89123,-21.77938,-15.6018,-4.336717,-7.056419,-20.27666,-19.64046,-24.60729,-13.74505,-11.65595,-13.46849,-10.83804,-11.80762,-10.56316,-13.44198,-19.77168,-24.06495,-15.61353,-22.83715
0,553,-19.81496,-19.31075,-12.19236,-0.6996098,-2.635364,-18.13663,-16.19441,-22.99314,-11.17388,-8.552327,-10.60276,-7.989288,-8.158694,-6.986695,-10.55864,-17.18328,-20.72465,-12.23973,-18.92207
0,554,-23.08872,-21.94672,-14.30607,-1.6045,-4.261952,-21.53602,-20.91613,-27.41576,-15.22652,-11.68245,-13.16205,-10.77223,-11.34517,-11.29139,-12.44288,-19.45283,-25.31488,-13.49209,-22.63278
0,555,-10.2858,-8.218082,-0.4476651,10.23242,9.253132,-8.127674,-8.127152,-13.8783,-2.255636,1.240229,-0.4279956,-0.4679746,2.975919,1.897707,0.3386863,-6.378191,-11.56343,-0.1979251,-9.411464
0,556,10.46285,11.64386,18.34007,24.62891,25.58179,11.22868,13.02028,5.770581,18.77959,19.72378,17.75822,13.23426,22.5069,19.73606,14.60702,12.50925,7.459134,14.18043,8.606864
0,557,9.51791,11.44856,14.80126,20.19277,22.29674,10.98153,12.90149,6.349137,18.16264,17.74348,15.95455,10.78247,20.45529,17.54424,9.415915,8.747467,4.010927,8.989836,4.501658
0,558,8.93734,11.38381,13.75662,15.86362,17.80202,10.48199,12.78198,6.362979,15.79767,15.4573,14.48972,9.654202,18.43547,16.08276,5.547388,8.792589,4.298931,5.808723,1.961943
0,559,7.778743,12.25177,13.45598,14.5359,15.2024,11.39606,13.11124,7.520448,16.43825,15.37583,14.75753,9.425694,17.69136,14.99701,2.916615,9.991949,5.522751,4.46671,0.5511655
0,560,2.892749,7.144943,7.913279,8.756071,8.160527,6.466149,9.309674,3.816543,9.938375,9.45548,8.850283,5.319124,12.04794,7.636497,-3.540887,4.777978,0.08363335,-1.021859,-4.057799
0,561,-8.136024,-3.528868,-3.708476,-0.7009224,-1.323252,-4.897568,-1.713534,-8.183599,-1.481295,-0.656181,-1.765258,-2.008933,1.949809,-4.289816,-12.86318,-6.416432,-10.11755,-9.855754,-13.21591
0,562,-13.09403,-9.56503,-7.816723,-5.58217,-4.560132,-11.10931,-9.563425,-14.87062,-7.594759,-6.271728,-6.940593,-6.279383,-4.15288,-10.80386,-16.58082,-12.68529,-16.68699,-13.92227,-18.13026
0,563,-20.77734,-16.51199,-15.14514,-12.80258,-11.63861,-18.5107,-17.18041,-23.22918,-14.88465,-13.28673,-13.47577,-11.522,-11.93988,-16.75303,-21.02951,-20.9424,-24.60691,-18.4393,-24.99829
0,564,-5.781141,-0.7445623,-0.5691201,1.21342,2.686586,-3.130326,-0.7584924,-7.797806,1.657777,2.008821,1.152952,-0.156483,4.527923,-1.107037,-5.964956,-5.919708,-10.05915,-4.008506,-8.026789
0,565,5.588524,11.23065,7.773645,6.152346,9.52124,8.06571,10.39434,4.321888,12.68792,11.05661,10.12908,6.206688,14.26082,7.035338,0.3510491,3.865532,0.1071163,3.222017,2.782653
0,566,-12.09278,-7.040753,-12.53529,-14.7916,-8.964789,-9.943107,-7.796436,-13.11273,-5.358228,-7.26581,-8.448713,-9.049716,-5.11754,-12.97277,-20.49321,-14.66013,-18.96237,-14.52206,-14.71253
0,567,-17.92922,-13.2908,-19.17939,-22.18116,-15.17477,-15.30497,-13.93747,-17.13521,-12.00473,-13.59002,-15.07516,-14.0378,-11.72338,-19.99985,-25.84951,-20.13336,-24.12031,-19.86397,-19.83867
0,568,-14.52259,-8.436772,-17.38953,-22.33368,-14.52952,-11.29494,-8.537387,-12.7658,-9.113571,-11.23558,-12.65604,-12.73872,-8.590696,-17.57516,-23.70071,-16.46783,-21.71123,-17.52438,-15.8047
0,569,-16.13579,-9.649112,-20.75397,-24.05651,-16.05809,-12.46926,-10.209,-13.71871,-10.11667,-12.78112,-14.51587,-14.51165,-10.83906,-20.17573,-25.57435,-18.60948,-23.05067,-17.90851,-16.91322
0,570,-13.73669,-7.125557,-19.48376,-21.15449,-11.51822,-10.1901,-7.149854,-12.37261,-6.330065,-9.339627,-11.96151,-12.72678,-7.450248,-17.55743,-21.45251,-16.37914,-20.68854,-14.05693,-14.09452
0,571,6.495693,11.83124,-0.7586291,-6.749049,5.398082,9.173058,13.15936,7.805996,13.98451,9.299687,5.815681,1.679327,12.39969,-0.09137721,-3.853065,1.553527,-1.161419,3.724501,3.285061
0,572,6.672836,9.959567,-3.362657,-11.36945,1.72877,7.887375,12.1197,7.786731,12.64375,6.786039,3.284446,-0.635358,9.182376,-2.582238,-7.221003,0.4311557,-2.101321,2.71143,3.43307
0,573,5.004317,7.508395,-9.151175,-15.66149,-2.077026,5.037496,10.0729,4.419698,11.19352,4.336685,0.006511973,-3.728117,6.313468,-5.780569,-9.586865,-2.372634,-5.466959,1.323285,1.516597
0,574,1.742932,5.133762,-11.8129,-19.05957,-5.970796,2.970991,8.112952,2.505863,8.923732,2.144045,-2.449794,-5.915883,4.425065,-8.290879,-11.56902,-3.871275,-9.021057,0.542657,-0.8927146
0,575,-2.09465,0.7227299,-16.27513,-24.48571,-10.7514,-1.270015,3.6433,-1.310082,5.259453,-2.28535,-6.612661,-8.580887,-1.567143,-11.79216,-14.86533,-8.356893,-10.41256,-1.975799,-1.210158
0,576,-12.32543,-10.60876,-27.71293,-34.2708,-20.57964,-12.03883,-6.764789,-11.75199,-6.242543,-12.34214,-17.35028,-15.88692,-11.53856,-20.73079,-23.97931,-17.20565,-18.56873,-10.85962,-10.1916
0,577,-14.09357,-11.10183,-29.21332,-34.13511,-21.00587,-12.03654,-6.588856,-11.24855,-6.783511,-12.45603,-18.09491,-15.91866,-11.8481,-20.68718,-22.86284,-16.08106,-16.72452,-9.876461,-8.710654
0,578,-15.42833,-10.80047,-29.28601,-34.16512,-21.30317,-12.26579,-6.480043,-11.9424,-6.884712,-12.39816,-17.91882,-15.44095,-11.79179,-19.54303,-22.01015,-15.88332,-15.93662,-9.665847,-6.782149
0,579,-10.21533,-8.100957,-23.83744,-28.94593,-18.35939,-8.281646,-3.29045,-7.188905,-1.956713,-8.179124,-13.62564,-11.57104,-8.104812,-14.54829,-15.86901,-12.68118,-12.22324,-3.603834,-2.475749
0,580,-6.945571,-4.816453,-21.10805,-26.76478,-16.26795,-5.384969,0.06158989,-4.478544,0.485066,-5.582996,-10.98733,-9.661999,-4.838273,-11.19384,-14.0976,-8.385535,-8.856409,-2.050829,-0.2045891
0,581,-2.65904,-0.8577388,-17.23285,-24.25395,-13.33891,-1.589723,5.048451,-0.3085635,3.437506,-2.139053,-7.788809,-6.552453,-0.1721736,-6.545554,-10.26608,-3.693562,-4.435083,2.51754,4.922844
0,582,-10.27959,-9.431317,-22.71248,-31.61258,-20.81382,-9.762602,-4.337238,-8.75309,-3.696611,-9.481385,-14.4539,-11.98003,-8.43133,-13.50053,-17.75706,-11.58999,-13.10731,-3.189153,-1.648527
0,583,-21.44482,-19.40355,-33.49018,-40.5156,-29.91317,-20.0003,-14.43914,-19.4065,-14.45518,-19.49068,-24.294,-20.06823,-19.07342,-23.81977,-27.29652,-21.52955,-23.81672,-12.60122,-11.30876
0,584,-11.11066,-9.768008,-23.53506,-29.58413,-20.03157,-9.753758,-4.334691,-8.975036,-2.409265,-8.604659,-14.1176,-11.82334,-8.107297,-13.06635,-17.49882,-11.49482,-12.96811,-2.71356,-1.140462
0,585,-2.469933,-2.7436,-16.22631,-24.52166,-12.54923,-2.257837,3.872116,-0.5711863,4.921369,-1.351028,-7.743791,-6.246702,0.4391623,-6.600301,-13.2507,-2.904835,-3.792255,3.897432,5.883487
0,586,-3.073514,-3.358221,-17.80376,-23.47538,-11.98035,-2.281785,3.773373,0.3092522,3.572664,-1.786937,-8.932996,-7.113113,0.7373248,-7.82574,-13.00023,-2.495632,-4.572698,3.430982,5.293473
0,587,-2.336531,-3.877923,-17.1633,-20.03932,-10.22238,-2.110473,4.275248,0.371223,4.384209,-0.8309042,-8.249456,-6.840275,1.419213,-6.914361,-11.70414,-1.632412,-4.859836,3.429785,4.371724
0,588,-8.855259,-9.533172,-21.96562,-23.79803,-14.33743,-7.604481,-0.2743807,-5.315147,-0.9648383,-5.73832,-13.0793,-10.31158,-4.30077,-12.67044,-15.24541,-7.813107,-10.26818,-0.6959733,-0.179203
0,589,-10.95013,-12.63614,-23.81225,-22.90367,-14.89668,-10.83993,-3.759956,-9.427537,-3.364664,-7.925194,-14.78259,-11.80902,-7.344415,-13.30873,-17.41702,-10.68679,-12.77391,-0.4946896,-1.960776
0,590,-8.059602,-11.26371,-22.64039,-17.66284,-9.800484,-9.144298,-2.540325,-7.839826,-1.354015,-5.89844,-12.94161,-10.81639,-6.017282,-10.97043,-13.93962,-9.522324,-11.08124,3.021853,0.0685515
0,591,1.594986,-2.142917,-13.6444,-8.501948,0.4404373,-0.5175641,4.877861,0.708598,6.960449,2.576191,-4.532197,-3.90695,3.240528,-3.114397,-6.184876,-1.384067,-1.418999,11.1576,7.990194
0,592,2.994525,0.2093093,-10.79919,-6.492918,2.702891,1.908097,8.314802,3.620791,7.650163,4.321597,-2.839944,-2.527507,6.102182,-1.450507,-3.91124,2.251023,0.5365353,12.27039,9.741585
0,593,-2.108562,-3.406464,-14.21829,-9.743536,-1.600418,-2.189456,4.924208,-0.5399578,1.464736,-0.1980596,-6.863493,-5.479289,2.68419,-3.891483,-7.542574,-0.3757447,-3.752091,5.991029,5.55703
0,594,-5.867193,-7.087526,-15.45254,-10.37699,-4.715111,-5.569787,1.831966,-4.258409,-1.547333,-2.615981,-8.908438,-6.027022,-0.562638,-6.261552,-9.572713,-2.728592,-4.445957,3.161441,2.550527
0,595,-1.139563,-3.064162,-9.874069,-3.755737,2.488374,-1.437231,5.694322,-0.519591,2.899736,2.379774,-4.067152,-1.950864,5.074335,-1.164464,-4.447254,0.6194621,-0.5580417,7.226584,5.354279
0,596,2.306026,-1.215381,-7.528431,0.4514338,7.166171,0.4868018,5.93327,1.254007,4.649943,4.127519,-1.946871,-1.325264,6.652918,0.7418635,-2.827139,2.168578,0.1361355,7.820329,5.232141
0,597,1.081281,-3.279401,-8.89621,1.118605,5.964077,-1.433486,4.409832,-1.340065,3.428502,3.141434,-3.049141,-2.354074,5.265762,0.3746132,-2.434728,2.281234,-1.172573,7.283478,3.907001
0,598,2.423406,-2.425815,-6.962419,3.068038,7.195957,-1.017634,4.657036,-1.028304,3.116174,3.3713,-2.155604,-1.549903,5.819203,1.547519,-1.085424,2.327603,-1.289572,8.662582,5.222451
0,599,-8.39405,-14.88465,-15.70996,-6.108729,-1.467386,-12.2079,-7.031867,-11.78791,-7.936491,-6.788314,-12.27017,-9.043296,-4.968474,-8.689345,-10.07545,-8.457111,-12.34193,-1.921569,-5.480745
0,600,-22.10176,-27.64119,-26.08848,-14.27775,-9.734602,-24.54817,-20.06093,-25.23904,-19.20007,-16.72536,-22.58401,-16.64163,-15.72983,-19.04735,-17.55896,-19.33963,-23.71063,-9.772129,-15.10727
0,601,-21.15156,-25.13462,-22.19752,-10.11997,-5.711091,-23.1532,-19.17939,-25.3294,-17.21267,-14.39961,-19.39006,-14.06715,-13.75705,-15.0791,-14.25708,-17.34853,-20.77052,-6.675562,-11.07832
0,602,-18.39509,-22.18864,-17.76877,-6.749552,-1.665296,-20.43211,-17.05498,-22.74842,-14.50699,-11.53177,-16.10235,-11.15523,-10.83288,-11.21803,-11.50518,-14.10356,-16.39587,-4.440295,-6.924811
0,603,-16.98321,-19.99562,-14.86052,-6.466964,-0.2964948,-18.58451,-15.33129,-21.91708,-10.79759,-8.618976,-13.35226,-9.198256,-7.794383,-8.70731,-10.04259,-11.28558,-14.34551,-2.635487,-4.870309
0,604,-22.74679,-26.59529,-19.96172,-10.751,-5.856114,-24.85856,-22.08263,-28.42793,-15.83657,-14.46107,-18.65529,-14.60142,-15.0939,-15.73466,-16.35726,-17.21072,-22.48751,-8.960056,-10.76124
0,605,-17.16168,-21.71908,-15.89351,-8.126027,-3.715925,-19.73249,-18.19228,-21.81124,-13.47056,-12.21362,-15.4993,-12.99854,-12.60308,-13.45677,-14.28042,-13.02519,-19.2238,-6.465878,-9.208202
0,606,-9.518891,-13.54054,-9.98576,-6.692058,-1.259006,-12.51166,-8.536954,-14.18735,-7.228811,-7.276321,-9.91503,-9.96932,-6.77141,-9.562687,-13.22563,-6.348726,-14.7036,-5.644157,-6.029021
0,607,-3.977197,-9.681468,-7.995124,-6.23872,-0.3086136,-9.094451,-4.298255,-10.39848,-3.349825,-4.5696,-7.389139,-8.288311,-3.459796,-8.419345,-13.01871,-4.617793,-13.06658,-5.411415,-4.889978
0,608,-0.7461661,-5.400692,-4.699886,-3.112302,3.256648,-5.119394,-0.5441973,-6.392097,1.110511,-0.764507,-3.810642,-5.934721,0.6172966,-5.52738,-9.831592,-0.8156884,-10.03246,-3.739458,-0.5362507
0,609,-12.95787,-18.33198,-15.62782,-9.34986,-7.283885,-18.3363,-13.85554,-20.69024,-11.62004,-11.93775,-14.64251,-13.42157,-11.7177,-16.96247,-19.41798,-12.19455,-20.94291,-11.55589,-10.248
0,610,-17.42293,-24.06481,-18.74481,-8.59009,-6.279984,-23.67693,-21.11398,-27.16503,-14.74373,-14.34586,-17.52416,-14.23442,-15.39521,-19.34199,-19.10197,-18.3644,-23.04275,-10.94647,-12.05631
0,611,-13.34622,-19.45768,-13.73768,-2.834269,2.13696,-19.31298,-17.46841,-23.64656,-9.59408,-8.849065,-12.38981,-9.652814,-9.604325,-12.45225,-11.52202,-15.16181,-17.42976,-5.153228,-6.465962
0,612,-17.89278,-22.03769,-16.56244,-6.19311,0.2452377,-22.00706,-19.42931,-27.25412,-11.66518,-11.61571,-14.58657,-12.9837,-13.5695,-14.85595,-14.49408,-18.25543,-21.94552,-8.453602,-10.68708
0,613,-8.945334,-15.05486,-8.128157,-2.345948,5.998553,-14.25265,-11.49285,-18.60847,-4.200135,-5.13472,-7.933105,-8.699088,-6.63041,-8.10271,-9.206941,-9.598262,-15.47792,-0.688224,-4.581563
0,614,-8.667307,-13.6225,-8.895289,-5.679803,4.501204,-13.74034,-10.81151,-17.86782,-5.066899,-6.717903,-8.619388,-10.67478,-8.442357,-10.85956,-12.73339,-10.0217,-16.88428,-2.823936,-5.939437
0,615,-8.443615,-12.8919,-9.489938,-7.538131,1.974947,-13.08051,-10.65991,-16.74151,-5.184693,-7.478602,-8.967321,-11.55232,-9.678302,-12.6736,-12.4099,-10.11775,-17.69075,-3.306198,-6.794003
0,616,-5.561279,-11.69513,-6.715855,-7.124804,3.706596,-11.16599,-8.397467,-14.56654,-2.116436,-5.082043,-6.97727,-9.660074,-7.529547,-10.99143,-10.48281,-7.909062,-14.89851,0.9134742,-4.325189
0,617,-7.486048,-12.55046,-6.24972,-8.018664,3.792747,-12.21406,-8.264308,-16.07883,-2.492989,-5.253782,-7.228898,-9.681025,-7.385686,-10.48412,-11.69469,-7.676014,-15.28317,1.538719,-2.672049
0,618,-7.832475,-10.90787,-5.192762,-9.223213,3.570059,-10.72763,-8.027753,-14.62904,-0.6462111,-3.582537,-5.955858,-8.270271,-4.920812,-8.170835,-11.14963,-5.206734,-12.80675,1.325654,-0.2763459
0,619,-5.384265,-8.08106,-3.097298,-7.869711,3.698156,-8.755316,-6.630523,-13.05907,2.086556,-1.212463,-3.470896,-5.257095,-2.113403,-6.095684,-10.53969,-4.62632,-9.758067,2.301655,1.623169
0,620,-8.915231,-10.15678,-7.086536,-10.89619,-0.2716987,-11.17956,-9.2125,-16.0496,1.340393,-3.266618,-5.500404,-7.132148,-5.336589,-8.449137,-14.1799,-8.478938,-12.36234,0.1669165,-0.3523206
0,621,-14.63028,-17.42303,-13.85495,-17.47102,-7.822268,-17.9983,-16.25257,-22.51399,-5.325257,-9.688616,-12.22009,-12.07623,-11.85729,-16.0034,-21.05108,-14.88671,-19.50067,-4.009195,-6.6461
0,622,-17.11167,-18.80949,-16.62721,-21.01008,-11.29103,-19.4467,-17.92779,-23.5867,-7.985144,-12.36803,-14.67264,-14.71315,-14.5328,-20.05619,-23.5541,-17.31521,-23.30355,-5.851959,-10.3606
0,623,-22.0815,-25.49692,-25.00915,-28.48804,-17.51007,-25.81808,-24.38572,-29.33994,-14.92569,-19.50847,-21.99356,-21.44774,-21.90488,-27.53364,-31.05022,-24.50657,-31.99058,-11.55376,-17.46322
0,624,-15.3666,-20.39951,-20.19567,-23.21341,-13.54988,-21.07623,-18.15107,-25.26709,-8.188984,-13.77161,-16.76613,-17.44227,-15.9951,-22.79432,-27.21268,-18.57844,-26.97714,-5.98958,-12.21838
0,625,-2.611821,-5.246951,-6.85959,-14.90014,-3.869134,-5.917937,-2.931899,-9.067888,6.991254,0.009271938,-3.582955,-6.610294,-0.5341011,-8.236259,-16.14437,-3.443579,-11.11992,3.332276,1.91725
0,626,-4.775846,-6.397589,-8.394994,-18.20337,-8.085601,-7.446819,-5.361793,-10.19285,4.47906,-1.30085,-5.478589,-6.298416,-0.001231521,-9.709374,-18.24943,-3.784822,-10.98901,3.241167,2.157786
0,627,-7.818368,-8.699069,-10.76068,-21.0071,-11.26548,-10.07527,-7.09612,-12.54658,1.417556,-3.425109,-8.066094,-6.678973,-1.124402,-12.19135,-19.37529,-7.099874,-12.79211,1.892447,2.011727
0,628,-2.086978,-3.147343,-6.046649,-14.56555,-6.313528,-4.037105,-0.7985234,-6.200373,8.474247,2.866489,-2.441141,-1.935257,5.15964,-5.416893,-11.98347,-1.637183,-6.689146,7.24106,8.391483
0,629,-3.614461,-5.888818,-8.536049,-17.93456,-10.29358,-6.086514,-3.580102,-8.104601,7.001267,0.8250158,-4.657606,-3.964801,2.594215,-7.67039,-12.86301,-3.073541,-9.275833,5.971377,5.294893
0,630,-4.017705,-6.030333,-9.898933,-18.11387,-12.67247,-6.531671,-5.311718,-8.20593,4.475031,-0.9658768,-5.910319,-5.241573,1.054328,-9.279951,-13.31262,-3.023512,-10.46239,5.474445,3.403605
0,631,-6.238117,-9.854451,-14.61055,-22.821,-18.29769,-10.33978,-7.481675,-11.7431,0.2548832,-5.577744,-10.10295,-8.929482,-4.217041,-13.20018,-17.71391,-7.085628,-14.82195,1.48346,-1.1499
0,632,-13.95191,-17.80981,-21.73813,-28.01266,-24.18371,-17.90449,-15.48069,-19.17567,-6.776828,-12.57101,-16.95774,-14.15154,-12.61782,-19.79891,-23.73071,-14.12093,-20.91654,-4.341848,-5.306848
0,633,-19.91774,-23.00048,-25.26245,-29.45292,-25.64223,-23.12511,-21.92422,-24.93426,-12.75642,-16.2996,-21.0528,-16.13162,-15.4997,-21.3471,-25.15649,-16.89892,-23.53119,-4.640733,-6.374393
0,634,-21.13168,-23.95536,-24.49197,-26.12791,-22.8822,-24.03568,-23.39177,-26.64193,-12.82958,-14.78662,-20.35089,-13.27976,-13.42123,-18.26599,-21.65471,-16.71043,-19.99345,-2.36158,-3.846256
0,635,-15.52609,-16.66222,-16.34389,-17.04854,-14.32388,-16.86707,-15.91478,-19.91256,-5.698534,-7.028902,-12.76799,-6.443584,-5.526786,-9.734852,-13.16433,-7.783326,-9.329144,5.42402,4.829252
0,636,-1.481027,-1.825413,-1.043481,-4.104989,-1.172244,-2.835829,-0.5286154,-6.012616,7.123594,6.404105,0.9121164,5.227668,9.861043,5.665692,0.6584233,6.331376,5.810533,18.75416,18.45777
0,637,-3.13047,-3.769971,-2.521236,-6.164505,-3.632261,-5.017297,-2.112464,-8.533408,5.317328,4.385962,-0.8324659,3.423024,7.687365,2.380885,-2.11064,3.851609,2.18589,16.13075,15.17606
0,638,-9.271378,-8.01387,-6.798947,-10.53303,-7.98329,-9.244745,-7.843172,-12.96845,0.2270944,-0.8765785,-5.024963,-1.149904,0.8675846,-4.043689,-6.715867,-1.493896,-3.622309,10.95998,8.138686
0,639,-4.148855,-3.685046,-2.598499,-6.625976,-4.650218,-4.957598,-4.644729,-7.97259,3.290826,2.126869,-1.519893,1.094797,4.523924,-0.4953812,-3.227801,1.731822,-1.47036,13.1862,10.93778
