type,latency,P7,P4,Cz,Pz,P3,P8,O1,O2,FC6,F8,C4,F4,AF4,Fz,C3,F3,AF3,FC5,F7
0,1,6.178608,4.819613,10.39798,10.1134,8.352715,-16.49331,3.680369,6.687501,5.114212,3.509939,8.029923,6.35275,6.564602,6.41438,8.0441,3.770207,5.600829,1.66315,2.518267
0,2,8.213961,7.518715,12.81338,12.10081,9.650684,-13.92192,5.189733,9.325445,7.825833,4.525533,11.4406,9.441933,8.564874,8.794073,12.1484,5.718889,7.189277,4.474209,4.516755
0,3,10.76562,10.22464,16.06905,15.23698,12.15184,-9.613001,8.435272,13.44587,11.06971,8.433819,14.64372,11.82863,11.01363,11.57088,14.81809,9.045843,9.325683,6.273612,7.304847
0,4,15.47497,16.0067,21.27646,20.96767,17.24513,-5.207163,14.13177,17.40661,15.00366,12.77972,18.24034,15.22091,16.26424,15.53928,17.96919,13.92891,11.77683,8.722336,10.47777
0,5,1.742289,1.987059,7.382997,8.33383,4.819465,-18.25823,0.3071288,4.542766,1.173654,-0.1290181,3.547345,1.404213,2.424672,2.435496,4.04051,0.2323963,-1.318885,-6.603534,-3.137088
0,6,-20.52559,-20.05875,-15.49022,-15.85582,-17.85164,-41.07972,-22.37108,-18.86415,-21.84405,-22.98737,-19.94428,-20.98487,-20.00198,-20.10614,-18.74023,-21.77382,-23.62362,-27.40731,-24.70716
0,7,-19.38981,-20.90267,-15.3111,-17.02281,-17.51987,-42.07502,-22.76315,-17.07154,-22.23781,-23.26887,-19.13568,-21.32881,-19.83682,-19.63643,-17.3295,-20.93291,-22.32989,-22.13142,-20.71091
0,8,-2.249019,-2.769476,1.514939,2.362578,-0.02883986,-23.01246,-5.30934,1.628331,-3.335001,-4.208891,-0.7567153,-2.396075,-1.775566,-1.51189,-0.8115616,-3.946442,-4.053263,-4.940896,-3.618951
0,9,4.265028,4.34392,6.570263,9.53274,8.138177,-15.61252,0.9882658,7.523452,2.630915,1.006391,4.581367,3.680382,3.682905,4.550574,5.103479,1.051954,0.5968932,-0.8956918,-0.1125823
0,10,8.510294,7.963381,11.74767,13.87169,11.20558,-11.67632,6.32531,12.61396,6.539639,5.132592,9.396222,6.424862,7.275009,8.262634,9.855417,6.822539,4.142436,2.823277,3.977538
0,11,8.373201,7.410215,11.85341,12.23895,10.6609,-11.35112,6.624038,13.07398,6.025568,4.352782,9.019469,6.151814,6.869515,7.514168,9.25775,5.523549,2.804605,2.439681,3.294734
0,12,13.96769,13.24354,16.92908,18.83981,16.32954,-4.377391,12.46108,19.79567,11.28543,9.529948,14.23409,11.09274,12.12967,12.78775,15.29099,10.5844,7.59832,7.359437,8.337988
0,13,7.330604,7.720391,11.029,13.63178,9.517022,-10.59027,5.781628,13.79746,5.219812,4.409941,6.979187,5.247581,5.410049,6.850554,9.773548,4.891879,1.584818,1.027944,2.81302
0,14,0.8495903,1.168799,5.982034,6.015471,2.720477,-18.03989,0.5297264,4.552372,-1.757846,-2.707171,-0.5504581,-0.7335344,-0.4580719,0.1200666,0.6234248,-1.824081,-5.183723,-6.873903,-4.627247
0,15,3.628804,4.048593,7.940291,9.401799,5.804619,-16.52187,3.425899,7.09312,0.556371,-1.767438,2.162866,1.976737,1.445501,2.598804,3.476803,-0.2818706,-4.294386,-6.127158,-3.7959
0,16,1.174606,2.149177,6.70344,7.419585,3.318893,-17.70103,0.2378413,5.268932,-1.025855,-3.487171,0.8660637,0.4233738,-0.2284016,1.223249,2.05395,-1.63268,-5.04444,-7.163027,-3.728499
0,17,5.290121,6.619465,10.32837,10.78266,7.897878,-12.98068,4.14153,8.98549,3.031708,0.5492173,4.122533,5.033132,4.122867,5.213063,4.679784,1.966882,-0.8555468,-2.381425,-0.7198434
0,18,1.68737,2.167048,4.940044,6.942802,4.344208,-16.4371,-0.4879281,5.81445,-1.777551,-3.939961,-0.1322185,-0.2085078,0.0154199,1.252164,1.277754,-1.709896,-5.972123,-4.087012,-2.166933
0,19,-5.308198,-5.20315,-2.858604,-0.8844169,-3.154853,-23.21572,-7.111129,-1.637929,-9.438434,-11.13696,-7.745876,-8.473154,-7.873433,-7.049106,-6.601993,-9.47773,-12.45304,-9.769082,-10.51593
0,20,-5.132382,-5.098837,-4.419151,-0.9655637,-3.464559,-24.18019,-7.060636,-1.744921,-10.13469,-11.30281,-8.560483,-9.056328,-7.635193,-7.6892,-6.009928,-10.39215,-14.02508,-9.02409,-9.75035
0,21,2.849111,2.002677,4.314964,6.909467,4.386808,-18.0722,0.4391426,6.069883,-2.791185,-3.760894,-0.8644457,-1.325209,0.5788576,0.008435439,2.349445,-3.709676,-6.88065,-0.4476878,-0.4322325
0,22,9.143487,8.736666,11.9144,13.33111,11.4777,-10.32562,6.706714,12.61418,4.94008,4.702112,6.169398,5.881942,7.902182,6.847823,8.714357,3.61837,2.07576,5.992733,4.559073
0,23,8.829737,8.665516,12.48975,12.56472,11.1021,-9.294058,6.373519,11.1622,5.232495,3.870519,5.72954,7.231707,6.553181,7.448359,8.23138,4.12515,2.241415,5.581625,3.655918
0,24,8.745541,8.614163,11.33033,11.29697,10.63653,-10.52671,6.093332,10.99001,3.969481,2.563826,3.947846,7.102721,6.152569,7.227296,8.242622,3.822682,1.424674,5.406827,4.595681
0,25,7.721061,7.149436,10.05435,11.54173,9.303797,-10.88485,5.123305,9.991535,3.733781,2.304982,3.96243,6.444247,5.773326,6.703173,7.080564,3.56371,0.2775083,5.523219,3.693602
0,26,-7.641694,-7.919951,-5.335608,-3.868066,-6.130385,-27.70565,-10.46079,-5.487588,-11.21214,-12.47948,-10.46793,-9.167447,-10.20706,-9.45577,-8.24851,-13.26757,-15.38697,-8.870635,-12.60863
0,27,-4.677691,-5.511024,-3.096106,-1.681098,-3.356715,-24.43824,-7.998932,-2.550998,-8.253697,-9.294144,-7.586481,-5.97316,-7.769114,-6.379959,-5.161601,-10.36682,-11.46566,-4.299024,-8.433469
0,28,0.8691729,-1.423641,1.241909,3.163905,1.804877,-19.30396,-2.578683,2.426851,-4.279654,-4.16265,-3.146885,-2.837157,-2.740424,-2.108146,-0.1676233,-5.436382,-7.854584,2.740012,-1.452792
0,29,-2.32972,-4.671221,-2.568326,-0.05118847,-1.064344,-23.18069,-5.698059,-1.579995,-7.465674,-7.033042,-5.652374,-7.295141,-7.049854,-6.431087,-3.764513,-9.907586,-12.8729,-0.679809,-5.784174
0,30,-4.738911,-6.608909,-4.353312,-3.560792,-4.163951,-26.4594,-7.86334,-4.818325,-9.103522,-7.430435,-7.842029,-9.059011,-9.239222,-8.693547,-5.83221,-10.98385,-13.79228,-2.080693,-7.085261
0,31,0.1106759,-1.484528,1.529065,1.751832,1.24784,-20.16752,-3.919206,0.2060059,-3.27263,-2.219416,-1.635728,-3.031598,-2.218391,-2.48042,-0.5662949,-4.829522,-7.346765,3.757875,-0.6676906
0,32,-1.157283,-3.155897,-0.1991201,0.7844449,-0.02830884,-20.50286,-6.010987,-0.5510284,-4.356551,-4.177893,-2.537578,-3.755223,-3.337245,-3.420599,-1.086017,-6.664464,-9.251059,3.939883,-1.895981
0,33,-3.194756,-4.610639,-3.457814,-2.065977,-2.376512,-23.45474,-8.085492,-2.575983,-5.881333,-6.097203,-3.584773,-5.331173,-5.751197,-5.440437,-4.695364,-8.273067,-10.61647,3.157019,-3.98106
0,34,0.9393646,-1.394799,0.3374312,1.229746,0.8623124,-20.07754,-3.614763,-0.9980934,-2.120165,-1.826541,-0.2419123,-1.283306,-2.213147,-1.969438,-1.015228,-4.688452,-7.545287,8.472315,0.2763828
0,35,14.89474,14.38377,15.79167,17.00472,15.55066,-4.711272,9.970868,14.4607,11.84608,12.56062,13.1499,12.48822,13.25834,12.13283,14.53491,9.198448,6.609091,21.51582,14.65979
0,36,14.39255,14.26709,15.43191,16.95209,15.9335,-5.510736,10.02925,13.92151,11.39728,12.09085,12.37753,11.67318,12.11222,11.85992,13.10008,9.809107,5.418943,18.42847,12.32831
0,37,-7.160422,-9.19342,-7.753662,-5.242433,-6.148516,-28.05004,-12.60537,-8.584831,-11.02326,-10.54949,-9.208765,-10.99675,-10.62707,-10.54352,-7.070579,-13.37082,-17.24998,-0.5065039,-8.729042
0,38,-21.21714,-25.00316,-22.78189,-20.55833,-20.88406,-44.4753,-26.44676,-23.21582,-26.66285,-25.05818,-24.95111,-26.23085,-24.809,-25.46332,-23.46878,-28.26768,-31.99908,-12.80137,-21.81402
0,39,-24.39169,-30.29905,-26.14741,-25.25719,-24.46726,-48.5888,-29.68667,-27.56314,-30.19967,-28.69684,-28.20891,-29.38564,-27.80097,-28.78292,-28.45212,-31.48645,-34.61546,-13.99254,-25.38424
0,40,-5.241946,-10.1228,-7.168652,-6.043781,-5.439023,-28.46567,-11.11577,-7.823164,-9.56813,-8.053307,-7.679923,-8.919915,-9.429745,-9.012516,-6.902445,-11.85169,-14.08059,5.780221,-4.997481
0,41,3.346721,0.141818,1.875493,3.478584,3.839699,-18.06017,-2.573667,1.703243,0.336193,1.627755,1.53929,1.169539,-0.810046,0.7332812,2.979588,-2.136303,-3.507552,12.80663,3.629641
0,42,1.853312,-0.4246825,1.366651,2.550447,1.75912,-20.09662,-3.594235,0.6499248,-1.888532,-0.7743778,-1.012683,-0.9041239,-2.786142,-1.325561,1.514155,-3.541687,-5.306722,11.03084,1.075093
0,43,0.6722962,-2.160046,-0.5633382,1.173076,0.9901265,-21.31341,-4.670661,-1.935685,-4.202908,-2.994461,-3.565641,-3.6157,-4.446018,-3.720476,0.325922,-5.919461,-8.908639,8.907015,-2.301655
0,44,-2.405683,-6.120052,-3.072208,-0.5363146,-1.568226,-23.03052,-6.895134,-5.713395,-6.552365,-4.968202,-6.016386,-6.451783,-7.245586,-6.444998,-3.637981,-9.074734,-10.92112,4.493186,-6.375351
0,45,-12.72319,-15.92397,-13.90412,-11.51348,-12.27462,-32.71003,-17.30048,-14.84322,-17.23964,-15.03074,-16.92932,-17.44106,-18.22145,-17.34711,-13.1311,-19.79368,-21.61022,-5.10288,-16.10006
0,46,-24.51641,-29.11388,-26.82915,-24.26969,-24.76799,-45.97787,-29.37382,-27.18105,-30.39966,-28.10718,-29.99239,-30.32623,-32.09623,-30.23519,-25.46401,-33.20645,-34.77785,-15.06045,-27.91354
0,47,-19.14692,-24.76612,-20.69188,-18.87305,-19.38974,-40.45904,-22.87496,-22.55901,-24.47557,-21.35477,-24.66108,-24.64076,-25.32515,-24.75066,-21.39281,-27.07842,-29.71931,-10.71448,-24.30554
0,48,-12.97253,-18.48294,-14.78315,-13.01074,-13.13152,-34.53152,-16.92853,-16.72234,-18.71587,-15.17614,-18.16595,-19.38108,-19.20874,-18.73121,-14.95062,-20.61749,-22.70916,-4.549928,-15.83597
0,49,1.13841,-3.240151,-0.8971733,1.270027,0.8301835,-19.05195,-2.592141,-0.6033566,-3.659759,-0.3129569,-3.644529,-3.653435,-5.003351,-3.621001,-0.04844757,-5.933434,-8.044378,8.641834,-0.61319
0,50,10.56264,6.287369,8.8798,11.07628,10.32109,-8.52319,7.192523,9.383151,5.66648,8.479067,5.301768,6.046107,3.606318,5.981495,9.083572,3.536101,1.328102,17.19314,7.921533
0,51,1.613195,-2.809216,-0.9076828,1.140963,2.326198,-18.23322,-1.123134,0.2935622,-4.992297,-2.492377,-5.806551,-4.411742,-5.776205,-4.252551,-1.082931,-6.954103,-9.608577,5.024449,-4.766391
0,52,-4.983693,-8.00668,-8.148081,-4.599601,-4.727525,-24.3373,-7.619015,-5.333182,-11.38909,-9.968452,-10.83286,-11.39955,-12.50805,-10.8277,-6.847953,-13.31571,-16.4699,-2.123608,-10.24383
0,53,-5.933734,-9.313916,-9.230392,-5.191947,-5.623263,-25.67017,-8.131255,-5.831703,-11.66796,-10.25057,-11.194,-11.97744,-14.56129,-12.00998,-7.174489,-15.22307,-17.99316,-4.163173,-13.07807
0,54,-16.27397,-19.97608,-19.87193,-15.90404,-16.05787,-36.04623,-18.56838,-15.81007,-22.74616,-20.0319,-22.75554,-23.74834,-25.40797,-23.21881,-17.31847,-25.68805,-29.1374,-13.4793,-23.63095
0,55,-13.65089,-18.94012,-17.44394,-15.10835,-15.15179,-34.23006,-15.54544,-14.13477,-21.3015,-18.44462,-20.47936,-22.50427,-24.2668,-21.58224,-15.63572,-22.85467,-27.44823,-8.496211,-19.46668
0,56,0.90689,-4.285227,-2.794894,-0.3938575,-0.2968411,-20.62003,-0.874441,0.9227434,-6.68919,-4.116138,-6.721419,-6.67918,-10.13291,-6.635491,-1.195118,-9.024909,-12.18227,4.833287,-5.825999
0,57,7.176578,3.087691,3.290652,6.057026,6.442125,-13.95226,4.864882,8.008879,-0.0174284,1.556715,0.1971502,0.03354943,-3.09835,0.0298826,6.243174,-2.080645,-5.032688,10.52939,-0.5050064
0,58,1.11371,-1.686823,-0.6511234,0.7277105,0.4333042,-18.4856,-1.13119,2.747802,-5.108291,-3.734733,-5.314382,-4.761472,-6.388274,-5.449874,-0.5157093,-7.835532,-10.20839,5.327137,-7.125358
0,59,-2.31972,-6.098439,-3.995239,-1.280002,-2.605422,-20.40195,-4.340319,-0.3631312,-8.12884,-6.621901,-7.776525,-8.655993,-10.10617,-8.538732,-4.159966,-11.10567,-13.50111,1.553537,-10.25196
0,60,-7.681273,-11.67252,-11.47224,-8.066556,-8.204774,-25.69589,-10.5491,-5.142571,-14.51643,-13.70762,-13.01192,-15.3543,-16.61653,-14.17982,-8.742575,-16.03048,-19.99132,-2.95625,-13.66319
0,61,-11.30133,-15.33367,-15.39174,-12.55547,-12.44934,-30.35094,-14.60013,-8.331957,-19.06873,-17.42559,-18.05339,-19.53398,-21.09794,-18.50357,-11.3329,-20.68951,-24.61239,-5.293697,-15.86898
0,62,-11.70529,-17.19537,-16.92064,-12.76973,-13.73071,-31.95863,-14.50368,-8.153329,-20.06361,-18.60015,-17.92447,-21.36738,-23.43094,-20.15295,-12.28546,-22.62572,-26.87577,-4.911167,-17.28732
0,63,-6.352804,-11.59799,-11.41511,-8.567674,-8.29747,-25.54873,-9.389845,-1.455632,-14.05673,-13.10778,-11.35042,-15.30771,-18.08354,-14.16771,-7.187812,-16.63294,-20.45843,0.7747107,-10.67733
0,64,-3.602679,-7.208407,-8.091226,-4.974148,-6.078833,-22.78575,-6.383522,0.6007005,-10.77025,-8.792994,-10.23494,-10.75459,-14.10542,-10.58356,-3.318561,-12.48686,-15.526,3.676652,-7.418587
0,65,-4.441092,-8.416885,-9.098101,-4.858732,-6.922115,-23.52229,-7.488192,-0.07642759,-12.22966,-11.51928,-10.7804,-11.80793,-16.21913,-10.9693,-3.714722,-13.55353,-15.99026,2.159821,-6.753203
0,66,-11.72352,-15.58527,-15.67725,-11.54017,-13.84023,-29.56231,-13.98626,-6.30316,-18.60617,-16.69154,-18.52998,-18.18793,-22.84807,-17.47843,-11.65422,-19.85003,-23.8853,-6.338249,-14.63624
0,67,-7.42826,-11.81008,-10.83758,-8.656951,-8.743316,-25.47167,-10.51472,-2.12308,-14.19052,-11.34809,-14.71313,-14.02152,-17.3444,-13.3078,-6.970818,-15.22686,-19.33959,-1.072897,-11.1277
0,68,1.733882,-2.216021,-2.360046,1.655562,0.8961802,-15.88811,-1.297874,7.785211,-4.555047,-3.077021,-5.065629,-3.442313,-8.429792,-2.949573,1.547959,-5.856699,-10.57612,6.429796,-1.905859
0,69,11.11706,8.92257,8.563114,12.36897,10.83644,-4.66194,8.628884,16.94148,5.804578,6.50143,5.582451,6.460182,1.964014,6.513315,11.29705,2.903508,-2.397959,13.44959,6.474432
0,70,13.20958,11.54941,11.84037,16.05884,13.05328,-0.7992422,11.39181,19.25683,8.587339,9.469986,8.775655,7.788173,5.337409,8.546839,15.09384,6.095881,-0.6155804,13.82251,7.385727
0,71,10.57978,9.959897,9.244453,14.54939,11.38491,-2.398813,9.164085,16.4458,6.822222,7.651991,6.337328,5.508261,2.170092,6.239818,12.7283,4.116704,-3.680467,8.834518,2.40554
0,72,-4.431607,-5.034865,-4.253098,0.3680638,-3.325741,-16.83823,-6.704887,2.31199,-7.01827,-7.052992,-7.173272,-7.117767,-10.76467,-6.376726,-2.149213,-9.373961,-15.22038,-5.241298,-9.446061
0,73,-1.240229,-2.011757,-0.8517542,3.046462,-1.075737,-13.05917,-3.793142,5.844912,-3.305799,-3.936538,-3.003175,-2.91911,-6.77613,-2.610615,2.533505,-5.630469,-10.41553,-0.6441526,-4.667853
0,74,11.10414,12.36384,10.84322,16.81365,11.37798,-0.04320843,8.877666,19.06289,9.785385,9.327175,9.909659,9.998473,6.257616,10.24847,14.20383,7.457945,1.492123,11.03131,8.746334
0,75,12.97947,15.55564,13.2385,18.4423,13.62065,2.932439,10.55463,20.72949,12.08305,11.78937,11.6744,12.84207,10.02306,12.77637,16.20896,10.0185,5.485872,12.73793,11.73139
0,76,13.61751,15.31679,14.17014,18.9881,14.58072,3.332512,11.88282,20.4181,12.59674,12.07317,12.08135,13.11624,10.16432,12.80515,17.39221,9.741999,5.157894,11.05486,9.421324
0,77,10.32601,13.52433,12.41479,16.37013,12.36107,0.8845152,8.225248,17.25718,10.51353,10.01136,9.846701,10.10838,6.691091,10.31799,15.11271,8.318361,1.088194,6.309433,5.790551
0,78,3.689158,6.794212,5.411834,10.05357,5.362298,-5.52007,1.008881,10.17443,4.149654,3.038362,4.160989,4.063658,0.3904833,4.45075,8.799835,2.253158,-4.387004,1.089776,1.526855
0,79,0.1342143,1.683476,1.908048,6.163435,2.653172,-8.90025,-2.93835,5.979994,0.6112999,-1.144561,1.555397,-0.4004045,-3.62253,0.6450751,6.27777,-1.581172,-8.975368,-3.522214,-3.849425
0,80,-9.110468,-6.16303,-6.685838,-1.398965,-5.781399,-17.79326,-11.99498,-3.660415,-6.822504,-7.512746,-7.928342,-6.738883,-10.80448,-7.007926,-2.969743,-10.29964,-15.11995,-13.69443,-13.2951
0,81,-12.41128,-9.346373,-9.214776,-4.669024,-8.505462,-19.03961,-16.61803,-6.536573,-9.906448,-10.86285,-10.98957,-9.620909,-13.26171,-9.34817,-5.524411,-12.63126,-16.24938,-15.01968,-14.592
0,82,-11.52641,-9.721902,-8.818162,-5.450136,-8.81355,-20.33265,-14.90899,-5.535873,-10.1315,-10.93555,-10.2825,-10.23779,-12.9969,-10.20478,-4.648814,-13.35827,-16.12086,-14.13835,-14.921
0,83,-3.879904,-1.07183,-0.1540345,2.896633,-0.4734428,-11.75918,-6.97656,0.6281456,-1.202675,-1.761876,-2.551376,-1.094137,-4.178721,-1.504172,3.541033,-4.018113,-8.004157,-8.291064,-8.277883
0,84,-2.130242,1.192923,2.364684,5.245066,1.412792,-8.510558,-5.320933,2.973072,1.958144,0.5210052,-0.05139482,2.55844,-1.377988,1.130745,5.840488,-1.873782,-6.807274,-6.477705,-8.499202
0,85,-5.314004,-1.504633,-0.7878883,3.102585,-2.053601,-11.28432,-8.453211,-0.5301884,-0.7587903,-2.002776,-2.601421,-0.9553503,-4.547669,-2.11348,2.680517,-4.209334,-10.00372,-8.631821,-11.88603
0,86,-5.127753,-2.064482,-0.9689181,2.427698,-1.074123,-11.97728,-9.357571,-0.7830489,-0.7200096,-0.9879608,-2.54744,-0.8782374,-5.528255,-1.660653,3.226201,-4.465978,-8.078023,-7.558592,-8.980735
0,87,-13.60831,-12.84147,-10.62413,-7.10588,-9.409282,-20.82424,-18.97428,-10.04382,-10.3314,-10.99509,-10.42887,-11.48627,-15.88859,-11.00403,-4.998551,-14.22589,-19.12277,-14.25976,-15.96368
0,88,-16.15549,-16.14985,-14.34694,-10.55912,-11.52828,-24.93609,-21.41455,-13.08406,-13.35293,-13.1524,-13.14676,-15.05302,-18.42084,-14.38288,-9.024676,-17.88783,-23.21516,-17.03935,-18.74226
0,89,-7.959648,-6.617797,-5.042894,-1.258869,-3.949624,-16.72906,-12.1075,-5.993432,-4.69891,-3.964856,-5.814509,-5.322034,-8.264103,-5.827496,-1.588524,-9.36823,-12.51799,-9.431227,-10.85123
0,90,-9.90378,-8.306737,-6.648327,-2.939634,-5.934385,-17.72381,-13.91891,-7.837756,-7.280365,-7.034445,-8.19324,-8.301003,-11.25849,-7.743808,-3.45139,-9.862914,-15.1851,-11.99691,-12.85952
0,91,-7.817307,-6.540445,-4.151707,-2.1925,-4.429887,-15.82081,-11.9382,-5.336698,-5.44879,-4.83623,-6.408876,-6.116634,-9.108406,-5.660872,-0.4968782,-7.452034,-11.60905,-9.158032,-9.407945
0,92,-8.37615,-7.365339,-5.35628,-3.0829,-5.672317,-16.36702,-12.1607,-6.231236,-5.811431,-4.092715,-6.883006,-6.634162,-10.15746,-6.465387,-1.547523,-8.455737,-11.58485,-8.462025,-8.10094
0,93,-10.64094,-9.053119,-7.223228,-5.054829,-7.645421,-18.33243,-15.01934,-8.449948,-7.912238,-6.873159,-8.299414,-9.04893,-12.86673,-8.78849,-4.05235,-11.24561,-14.44633,-9.956172,-9.941012
0,94,-18.79641,-17.88848,-15.51357,-13.17667,-15.95887,-26.63134,-23.60493,-16.0959,-16.33737,-15.41824,-16.91472,-16.98739,-21.20432,-16.44924,-12.38916,-18.8101,-22.20481,-16.87473,-17.4748
0,95,-17.90815,-18.97481,-16.81625,-13.00759,-16.0658,-27.01982,-21.96362,-14.48617,-17.3128,-15.36685,-17.59733,-18.15271,-21.32,-17.06865,-11.61733,-19.63371,-22.78779,-16.00116,-16.18308
0,96,-17.00384,-20.04977,-17.49599,-14.70358,-16.04198,-28.8564,-21.03748,-15.77854,-17.82573,-15.77416,-17.26884,-19.0616,-23.40803,-17.84085,-11.36622,-19.88778,-24.30855,-14.01773,-15.48706
0,97,-18.34258,-20.01876,-16.46782,-15.42315,-17.62441,-29.60422,-23.71154,-16.38105,-18.14014,-15.88479,-18.02341,-18.72113,-22.16059,-18.02929,-12.30217,-20.07957,-22.69176,-11.35735,-14.38385
0,98,-14.48572,-16.27247,-13.94018,-11.24368,-13.39351,-24.15822,-19.89468,-12.00741,-13.78887,-11.5075,-13.54048,-14.54916,-18.7241,-13.9027,-9.071114,-16.72761,-18.17717,-7.291618,-9.877665
0,99,-14.55783,-15.21965,-13.36485,-11.51521,-12.89984,-24.36979,-20.1541,-10.63937,-13.0021,-10.8136,-12.21108,-14.60291,-18.70237,-13.83089,-9.185893,-16.10975,-17.87738,-7.780149,-10.46013
0,100,-3.510569,-4.7965,-1.73772,-0.5797222,-1.724064,-12.52446,-8.645548,0.5904564,-1.869394,0.8843073,-1.914809,-3.174029,-6.666884,-2.358288,2.431167,-4.142121,-6.119136,2.107818,0.02111736
0,101,3.595848,2.000326,6.098856,6.852594,4.576838,-4.643116,-0.4525867,7.900516,4.78529,7.93941,4.332753,3.368099,0.3261784,3.938254,9.883431,2.179099,-0.2738932,8.435285,6.023624
0,102,2.744987,2.86179,5.069999,5.409315,4.138102,-5.27285,-1.030494,7.799595,4.727849,7.004486,4.382079,4.011344,-0.5137296,3.462686,7.909167,0.2941158,-0.7245318,6.038735,5.200881
0,103,-3.631543,-4.437681,-1.267494,-0.2315259,-1.36314,-12.3093,-7.523569,1.3196,-2.451496,-0.6941047,-2.124453,-3.433519,-6.585953,-3.499671,0.6004156,-7.696553,-7.701065,-1.238435,-2.86915
0,104,-9.840912,-10.85978,-8.546739,-6.053792,-7.51593,-17.88837,-14.76918,-4.138565,-8.945954,-7.723052,-8.091858,-10.30162,-14.36299,-9.145278,-4.870473,-12.39564,-14.22388,-5.937187,-7.501574
0,105,0.321297,0.408089,2.677644,4.276956,2.004472,-7.111776,-4.126431,7.794478,2.611533,3.402592,3.576843,1.466242,-4.055614,2.319921,7.464542,-0.2212593,-2.924834,2.656994,4.014607
0,106,-8.585663,-8.624476,-4.958424,-4.345867,-6.579738,-15.96698,-12.71265,0.1960134,-6.103755,-4.818021,-5.69434,-7.028237,-13.13301,-6.427835,-2.042791,-9.672158,-10.72504,-6.734838,-5.546034
0,107,-19.6663,-19.893,-16.81034,-15.13527,-17.9292,-27.32788,-23.39983,-10.96698,-16.77351,-14.57513,-16.90106,-17.93437,-23.76138,-17.5124,-13.90463,-20.44032,-22.36664,-17.16533,-17.02881
0,108,-12.73609,-12.36913,-8.957414,-9.036755,-11.31116,-19.55262,-15.74703,-4.748889,-9.682727,-6.832832,-9.997416,-11.01454,-15.60008,-11.11829,-7.915175,-13.72361,-14.02878,-10.10065,-10.15036
0,109,-9.464276,-9.518601,-7.041578,-6.521526,-8.243223,-16.2826,-13.17821,-1.635947,-7.941475,-4.992043,-8.125601,-9.326458,-13.49759,-8.607832,-4.861221,-10.69524,-12.00387,-5.140932,-5.747968
0,110,-8.423916,-8.916893,-6.449697,-5.356443,-8.028798,-15.86526,-11.74084,-0.4059274,-7.020391,-4.437768,-6.310727,-9.00668,-12.73908,-8.736231,-3.970901,-11.29811,-12.13178,-3.178231,-6.095842
0,111,-5.118786,-4.716094,-2.88938,-2.179654,-4.049138,-10.9762,-8.854738,3.412147,-3.871512,-1.756506,-2.759121,-6.036062,-9.203467,-5.314977,0.4674876,-8.092145,-8.065133,-0.9931082,-1.891404
0,112,-8.313962,-8.337173,-8.11832,-5.810246,-6.584192,-13.97697,-12.33931,0.9492257,-8.14649,-6.825495,-6.689754,-9.906243,-13.82891,-8.398254,-2.905658,-11.75229,-12.5895,-5.898014,-4.516584
0,113,-24.2291,-25.40796,-23.25524,-22.05738,-23.54052,-31.1917,-28.10319,-15.9698,-24.71456,-23.20844,-23.0999,-26.18392,-30.58855,-24.61581,-19.65805,-27.74359,-28.27666,-19.90303,-19.61643
0,114,-35.00359,-37.46266,-34.05041,-33.4944,-34.97709,-42.47296,-39.05335,-26.69435,-35.57682,-32.63515,-34.81221,-36.76655,-39.88701,-35.2272,-30.7962,-37.57205,-37.58689,-27.85721,-29.77082
0,115,-31.29585,-34.30544,-29.88083,-30.76656,-31.65023,-38.72213,-35.95867,-22.26771,-31.21429,-28.13369,-29.58672,-33.25531,-36.02663,-31.93349,-26.83057,-34.25511,-34.40774,-21.52418,-25.68954
0,116,-24.15847,-26.99481,-22.07048,-24.21987,-23.89655,-31.49692,-29.60798,-13.8659,-23.09364,-19.03318,-22.11302,-25.18997,-27.94595,-24.16751,-18.8661,-26.39901,-25.24467,-13.25893,-18.10594
0,117,-18.38679,-20.47051,-17.54387,-18.741,-18.09237,-24.44672,-22.72857,-9.414954,-17.62336,-14.7357,-16.33404,-19.44625,-22.74624,-18.43571,-13.99825,-20.39711,-19.48803,-10.50973,-13.0569
0,118,-22.6396,-25.67361,-21.94762,-22.8279,-22.16566,-29.94768,-26.9333,-13.38527,-22.38624,-20.23773,-21.27094,-23.36835,-28.35558,-22.76211,-18.2011,-26.229,-25.1995,-16.05076,-18.66134
0,119,-15.75093,-18.61134,-15.20826,-15.43213,-16.00345,-23.51814,-19.22278,-6.122394,-14.85002,-11.70333,-13.16391,-16.89596,-19.8312,-16.46732,-11.97083,-19.31868,-17.79005,-8.354517,-11.7987
0,120,-9.797639,-12.17341,-9.355523,-9.578206,-9.769339,-17.45463,-13.92338,-0.5061892,-9.423217,-5.934596,-7.641416,-12.12595,-14.31909,-10.99888,-6.082032,-12.9673,-12.71828,-1.253269,-5.326793
0,121,-12.33905,-14.83666,-11.88274,-12.46693,-12.40878,-19.25269,-16.35718,-3.259562,-11.79116,-8.298936,-9.855102,-14.79835,-17.6423,-13.68335,-8.343761,-15.65438,-15.35711,-3.819176,-7.735262
0,122,-14.15629,-18.055,-14.71346,-15.00313,-13.91222,-21.73421,-18.12349,-5.832967,-13.79006,-8.020185,-12.37021,-16.91508,-18.83174,-15.44012,-11.51366,-17.54398,-15.21858,-4.694445,-7.064229
0,123,-18.66593,-23.25531,-19.97472,-20.27799,-18.3412,-27.23652,-23.05853,-11.37488,-18.92762,-13.52259,-17.33523,-21.46256,-23.93145,-20.26078,-16.66795,-23.38581,-20.16575,-8.627339,-11.27685
0,124,-18.01841,-22.73517,-18.91339,-20.95479,-18.25406,-26.89175,-22.75575,-11.46363,-18.66448,-13.19382,-17.6166,-20.52562,-23.0825,-19.86622,-15.76007,-22.76728,-19.27855,-6.387343,-10.55072
0,125,-17.34615,-22.0847,-17.26592,-20.32384,-17.91606,-25.75291,-22.76694,-9.859388,-17.27958,-11.43914,-16.68016,-18.72184,-20.65594,-17.92852,-14.14303,-19.75696,-16.12077,-3.558612,-8.245215
0,126,-7.005317,-10.71222,-6.603881,-8.04514,-6.882399,-14.3037,-11.91243,0.3293005,-6.886673,-1.70686,-5.650966,-9.594666,-11.00447,-8.084961,-4.797958,-9.246152,-6.374097,5.285083,-0.05525264
0,127,-10.55797,-14.28837,-10.04034,-12.09347,-10.89714,-17.97598,-15.41512,-3.761865,-11.02713,-6.453097,-9.452253,-12.97328,-14.42639,-11.62245,-8.665954,-13.40473,-9.915658,1.778415,-2.19809
0,128,-24.65126,-28.35335,-23.7492,-26.55206,-25.50459,-32.72076,-29.85011,-17.38631,-23.86119,-18.48999,-22.49037,-25.47763,-26.6754,-25.04341,-21.25738,-27.66253,-23.39202,-11.05591,-14.49263
0,129,-34.3268,-40.22995,-34.34849,-37.46158,-35.16203,-42.98895,-39.60338,-28.08018,-34.4272,-28.33041,-33.44098,-35.77147,-36.38382,-35.51791,-31.56133,-38.96477,-33.4151,-19.76231,-25.09083
0,130,-10.95655,-15.25408,-11.8073,-13.3404,-11.13912,-17.65966,-16.05101,-6.085272,-10.25169,-4.263885,-9.201993,-12.12665,-12.29404,-11.80948,-9.01227,-14.38544,-7.332666,3.08197,-1.539739
0,131,-8.906882,-12.5944,-9.15292,-10.35642,-9.363074,-15.33488,-13.33939,-3.672561,-7.406934,-1.316585,-6.709158,-9.072966,-9.845651,-8.890711,-6.804093,-10.97574,-4.185119,4.079523,0.9187397
0,132,-15.91949,-18.97528,-15.04999,-15.85864,-17.56846,-22.40364,-19.91889,-9.518117,-14.64971,-8.341431,-14.16795,-16.21149,-16.38414,-15.75994,-12.92112,-17.26033,-12.58272,-2.400988,-4.974612
0,133,-17.91543,-21.60379,-18.05448,-19.71139,-19.27562,-25.12984,-22.17519,-12.43743,-17.01011,-10.59956,-16.42814,-18.08098,-19.09793,-17.70096,-15.74266,-19.44506,-13.19626,-4.392388,-5.859442
0,134,-29.55257,-34.59494,-29.78424,-33.22705,-31.35521,-38.03068,-33.65369,-25.71408,-28.36382,-20.78343,-28.00495,-29.66539,-30.98322,-29.95248,-27.49578,-31.66826,-24.25917,-14.80121,-17.7727
0,135,-29.95412,-34.91219,-30.00523,-34.36737,-31.71246,-38.20121,-34.38637,-24.59888,-28.86921,-21.42545,-27.97228,-30.09119,-30.70648,-30.2053,-27.70999,-32.41612,-25.41224,-15.10453,-16.62688
0,136,-29.75451,-34.22148,-29.61046,-33.45274,-31.14001,-37.60276,-33.80709,-24.63709,-27.21504,-19.42709,-26.48227,-29.02469,-29.43155,-29.32805,-27.51823,-30.86362,-24.13751,-15.65948,-17.35483
0,137,-14.09106,-17.54318,-13.09699,-15.54132,-14.85802,-21.27232,-17.64111,-8.478745,-10.88946,-4.062246,-9.728889,-13.46062,-14.91877,-13.386,-12.27763,-14.63253,-9.488975,-2.091168,-3.442492
0,138,-10.42381,-14.03397,-9.251674,-11.17806,-10.77858,-16.1581,-13.88967,-3.737734,-7.04585,-0.1660158,-5.905668,-9.129015,-10.31156,-9.007805,-7.259266,-11.61264,-4.088068,-0.07392606,1.830398
0,139,-5.114566,-8.527707,-2.240591,-7.076832,-5.60346,-9.805327,-8.616122,1.198825,-0.769394,6.185359,0.1989747,-2.038887,-3.597906,-2.363365,-1.156972,-4.976086,3.686163,4.952268,9.883138
0,140,-6.865843,-10.11598,-5.045449,-8.442039,-7.491086,-12.27578,-10.54289,-0.5503956,-2.601754,3.59692,-1.487638,-3.289227,-5.773747,-3.863582,-3.24556,-7.05222,1.482752,3.2946,8.25015
0,141,-10.4368,-12.22251,-8.056678,-11.81281,-11.16546,-15.60661,-13.77916,-4.848145,-5.348618,0.9956431,-4.661211,-5.839636,-7.897589,-7.267151,-6.764616,-10.70552,-2.239532,-0.7853634,4.63979
0,142,-21.34471,-22.90848,-16.90875,-21.91737,-22.1018,-26.86664,-24.0444,-14.95911,-14.96909,-8.215284,-13.54635,-16.69659,-17.09203,-17.74847,-17.21344,-19.85975,-11.0716,-12.40461,-7.104106
0,143,-28.77352,-32.50247,-24.94189,-29.70119,-29.78332,-35.27075,-31.74572,-21.12574,-23.46805,-15.45848,-21.99986,-25.38959,-25.29533,-25.32392,-24.20839,-27.21055,-18.5698,-18.80334,-12.78761
0,144,-30.51307,-35.24271,-28.38783,-32.72946,-31.66671,-37.7295,-34.17473,-23.20371,-25.72822,-17.31763,-23.86869,-27.72492,-27.59119,-27.50867,-26.14661,-29.50121,-19.37367,-18.51472,-13.36121
0,145,-24.11386,-28.13767,-22.61691,-26.33525,-25.96324,-31.45822,-27.53067,-16.45742,-19.86043,-12.47649,-17.15098,-21.97663,-22.92803,-21.96201,-20.2698,-24.32263,-14.49932,-11.89432,-7.012166
0,146,-25.23592,-29.63396,-24.49298,-27.74749,-27.07481,-30.74234,-28.10998,-19.00326,-21.45414,-14.43203,-18.66957,-23.80007,-24.29587,-23.8192,-22.10879,-26.57983,-17.67068,-13.77334,-9.14952
0,147,-29.48044,-34.3222,-29.62493,-33.53307,-31.18122,-35.45388,-33.00038,-23.77778,-25.41043,-18.15166,-23.23245,-27.05922,-27.45278,-27.43965,-27.17657,-29.6498,-20.21449,-16.20448,-13.27902
0,148,-27.90278,-31.42704,-26.96531,-32.12579,-30.07968,-34.78556,-31.26719,-20.39539,-23.58781,-15.6519,-21.50406,-25.3424,-25.02063,-26.0601,-25.60082,-27.94283,-18.14697,-14.00266,-11.01564
0,149,-36.2033,-40.72665,-33.75415,-40.68482,-39.47629,-43.1059,-39.25396,-28.50805,-32.10549,-24.26981,-29.75268,-33.79448,-34.34334,-34.37307,-33.13613,-35.73679,-25.38428,-21.3118,-18.74122
0,150,-25.21177,-30.03527,-23.81305,-28.70482,-28.73104,-31.92787,-28.00202,-16.9107,-20.63022,-12.43344,-18.34638,-22.33288,-22.75594,-22.76786,-21.00295,-23.83348,-12.69889,-10.76865,-7.048094
0,151,-8.921699,-13.31624,-6.758407,-11.74342,-11.26901,-14.81369,-11.68468,-0.8170012,-3.11188,4.804365,-0.6342379,-5.590407,-6.583194,-5.994493,-5.013582,-7.066379,2.808415,3.84145,7.99686
0,152,-9.38447,-13.17047,-5.883386,-11.3878,-11.26625,-14.44661,-11.91035,-1.68797,-3.142319,4.544246,-1.838873,-4.993611,-7.033682,-5.907924,-4.718194,-7.301147,2.38793,1.703133,5.93057
0,153,-11.1309,-14.34938,-9.070992,-14.29012,-12.89304,-16.61162,-13.30131,-3.655792,-6.130224,0.7080023,-4.327271,-8.135187,-9.949175,-8.480334,-7.421948,-9.029761,-1.253979,-1.772032,3.051866
0,154,-6.92575,-10.93998,-5.600345,-10.68834,-9.074701,-12.37325,-8.658548,0.3338945,-2.592761,4.953537,-0.7052851,-5.332567,-6.260681,-5.453722,-2.712525,-5.785456,0.3945347,2.125589,6.624948
0,155,-4.213452,-7.376018,-2.189249,-6.368714,-6.309233,-9.201488,-5.457119,3.08237,0.5802055,7.281657,2.811983,-2.046196,-1.787421,-1.951893,1.16498,-1.67764,5.94984,2.898662,8.736468
0,156,-10.34725,-13.7037,-8.655901,-12.9167,-13.15546,-15.78633,-10.86784,-3.608146,-5.961653,0.6438491,-3.639052,-8.105123,-7.302238,-8.236053,-5.363472,-7.827917,0.8676618,-3.704364,2.761293
0,157,-17.47849,-22.29189,-16.21453,-20.3001,-20.50476,-23.42238,-18.02818,-10.13968,-12.9692,-6.067397,-10.52568,-15.00068,-15.4456,-15.52109,-13.15634,-16.54438,-7.673893,-9.861619,-4.025025
0,158,-15.01954,-19.5519,-13.66874,-18.88783,-17.83631,-21.60358,-16.40659,-7.981307,-11.51637,-4.079194,-9.121247,-13.22809,-13.08764,-13.13688,-10.43999,-13.60993,-2.804891,-6.328255,0.7580923
0,159,-13.88229,-19.76745,-13.59447,-19.07804,-17.33883,-19.82699,-14.80299,-7.702754,-11.67443,-4.423077,-9.128203,-12.94813,-12.97156,-12.40166,-10.64607,-12.54367,-2.47233,-4.928217,2.814622
0,160,-13.36706,-20.63343,-13.62613,-19.26926,-16.72079,-19.86515,-14.52094,-8.075595,-11.06145,-3.629781,-9.41045,-11.74773,-11.65068,-11.44914,-8.869028,-11.47879,-4.098619,-4.941342,2.185277
0,161,-15.98183,-23.164,-16.59631,-20.75176,-18.88796,-21.86566,-17.08781,-10.59035,-13.03139,-5.366541,-11.56736,-14.06331,-15.05573,-13.49557,-11.39062,-13.64084,-7.012048,-8.253065,-0.1447988
0,162,-9.030577,-15.90532,-10.32711,-13.06384,-12.70223,-16.12409,-9.40261,-3.720573,-7.437833,-0.3826731,-4.441939,-9.702742,-9.091569,-8.869245,-4.986177,-8.898067,-1.080824,-1.345511,4.618517
0,163,6.03412,0.4669545,4.245333,1.620202,2.503633,-0.4092075,6.772896,11.42544,7.599741,14.75022,10.02933,5.5181,5.695127,5.832316,8.939601,5.913842,13.91571,11.33706,18.60481
0,164,2.326058,-3.24828,3.00781,-1.268642,-1.517844,-2.193224,3.775707,6.343038,4.881756,12.16399,5.711693,4.418739,4.375795,3.794317,4.688174,3.392375,11.4819,7.264537,15.70119
0,165,-9.262316,-15.30702,-10.65262,-14.54496,-13.16871,-14.20399,-8.617359,-6.80317,-8.457414,-1.785582,-7.165014,-8.690194,-8.285325,-8.508055,-6.838226,-8.268676,-0.6479337,-3.448993,4.863217
0,166,-14.95663,-21.11981,-17.08201,-21.24858,-19.72783,-20.78871,-14.6238,-11.85794,-14.31307,-7.319244,-13.25291,-14.07131,-14.15676,-14.11591,-12.91999,-13.33805,-5.853958,-6.803365,0.3335775
0,167,-17.17084,-23.81264,-18.37049,-23.28127,-22.27542,-23.32695,-15.86363,-14.10576,-17.05305,-9.939949,-16.13262,-16.0454,-15.07771,-16.09593,-16.29865,-15.64898,-7.503743,-10.40422,-1.329085
0,168,-12.26774,-20.56561,-13.81506,-18.11059,-16.95144,-18.53466,-12.35311,-9.383701,-11.44258,-4.438434,-9.414586,-11.33316,-10.5835,-10.84925,-10.38359,-10.68983,-2.14811,-2.968371,4.586944
0,169,-0.4395289,-9.01942,-1.742819,-5.251605,-5.221018,-7.111159,-0.4736702,1.488763,0.6373543,8.17701,2.198961,0.9846485,1.421645,1.32522,2.053751,1.349337,10.5756,8.883206,17.10443
0,170,0.6253306,-8.020723,-1.367322,-5.441039,-3.980612,-6.68253,0.6226469,1.503148,0.6469302,8.909963,2.48199,0.2511646,0.5812805,1.090085,2.427962,1.480941,10.67125,9.81796,18.55358
0,171,-3.098782,-10.95728,-4.429461,-8.763651,-7.793734,-9.754848,-2.877285,-2.327108,-2.45716,5.650987,-0.05732054,-3.845071,-1.833394,-2.823964,-0.8007747,-1.539271,6.044511,5.879994,13.99269
0,172,-0.3537112,-7.724308,-1.680737,-5.123605,-4.117243,-5.89159,-1.009378,0.9247239,0.5964012,7.95633,2.662225,-0.1815199,2.418383,1.482586,2.251207,3.223471,9.671505,8.401187,17.37929
0,173,-2.74241,-9.300442,-3.480408,-6.989573,-6.666707,-7.040687,-2.477698,-1.50146,-1.203397,6.843523,0.3320036,-2.161149,0.4726866,-0.6822886,0.1092192,1.449236,8.930836,4.732736,15.13777
0,174,-12.73838,-19.58327,-12.00841,-16.28656,-16.14531,-17.19661,-12.38113,-11.43118,-10.74588,-2.481347,-10.05882,-11.45591,-9.672139,-10.344,-9.614864,-8.956264,-2.156587,-6.262733,3.635889
0,175,-22.53334,-29.67714,-21.68477,-26.23624,-26.03189,-27.85456,-22.90899,-21.72036,-20.47001,-12.22832,-19.75437,-21.23604,-18.45532,-20.23307,-19.94446,-18.27903,-10.39743,-13.3109,-7.119885
0,176,-11.21351,-18.16777,-12.17582,-15.37095,-14.28069,-15.94836,-12.34785,-9.771262,-9.191291,-1.678654,-8.034199,-10.40353,-7.2655,-9.65332,-7.486193,-8.026483,1.192623,-1.361148,2.207357
0,177,-10.6009,-15.87835,-9.984314,-14.86364,-13.47806,-14.43555,-12.28065,-8.248953,-7.393021,-0.188875,-5.828856,-8.485212,-5.148942,-7.677197,-5.430943,-5.741551,3.400791,-1.04704,5.725072
0,178,-13.45288,-19.42303,-12.57802,-17.67011,-15.85271,-17.01692,-14.46322,-13.35056,-10.53199,-3.518451,-9.080174,-11.80686,-7.810929,-10.98334,-9.578916,-9.15959,-1.10713,-5.51726,0.8315939
0,179,-18.75957,-26.05839,-18.92409,-22.95667,-20.67891,-23.41759,-19.56331,-19.80894,-16.97857,-9.756653,-15.29827,-18.58836,-15.20784,-17.37887,-15.80829,-16.56057,-8.676962,-11.9602,-5.437428
0,180,-16.07697,-23.43304,-17.38042,-21.15113,-18.33349,-20.49084,-16.90059,-16.34297,-14.18118,-6.696677,-13.56667,-14.58289,-13.13466,-13.92289,-13.555,-13.44152,-6.369394,-8.88245,-1.40968
0,181,-11.04514,-16.42914,-11.07864,-15.9333,-12.41453,-14.86872,-12.51694,-11.68842,-8.773745,-1.285212,-8.073238,-9.2352,-6.113423,-8.003914,-8.110036,-6.466525,1.563718,-4.331369,5.424907
0,182,-6.734839,-11.19775,-5.610866,-10.58329,-6.623779,-8.634726,-8.210018,-8.115312,-4.740384,2.418613,-3.741104,-5.629247,-1.328438,-3.938963,-4.480214,-3.553454,5.588857,-2.2202,9.625115
0,183,2.112358,-0.7057628,3.836519,0.3399112,2.213789,2.557931,1.874399,1.887163,4.778277,11.51248,5.324347,3.986387,8.507134,5.509293,4.946124,5.99538,15.74613,3.809005,17.53357
0,184,2.456874,-0.3083323,4.821717,1.093497,1.807128,3.424184,3.033837,1.772548,5.721872,11.71991,5.647221,5.61306,8.022002,6.232564,4.920566,6.633511,15.23655,3.723372,16.41427
0,185,0.4211718,-3.053373,2.996624,0.5026633,0.3349799,1.883708,1.264604,0.806303,3.560527,10.18096,2.866251,3.335583,6.48457,4.72735,2.951671,5.226747,12.24955,0.3786316,13.94448
0,186,-3.99874,-6.151848,-2.339488,-4.664426,-3.693266,-2.239558,-3.420263,-2.656017,-1.25328,4.612924,-1.193223,-1.702206,1.787836,0.09573412,-1.271488,0.598753,6.63643,-5.293078,10.19036
0,187,-6.377354,-10.23957,-6.274125,-8.160033,-7.364674,-7.655724,-5.710851,-5.127622,-5.340817,0.1293208,-4.577692,-5.748534,-2.158891,-4.043968,-4.745559,-3.230177,3.299373,-5.373599,5.770675
0,188,-3.569188,-7.044386,-3.235975,-5.706055,-4.836965,-5.941385,-3.762458,-2.268328,-2.24177,4.093568,-2.064921,-2.646968,0.3021726,-1.324122,-1.850726,-0.0395751,7.108748,0.4598469,9.237008
0,189,1.466553,-2.336096,3.750317,-1.290154,0.02454248,0.8011846,1.929977,1.895921,3.002553,9.494255,2.087803,3.410521,6.846554,4.111095,3.8733,5.448207,13.01041,4.378367,13.51549
0,190,-2.352844,-7.110359,-0.6841087,-6.187078,-3.849743,-3.594838,-1.671701,-1.985936,-1.325029,4.55867,-1.596271,-1.145586,2.028163,0.03700946,-0.04606436,1.908883,7.67155,-0.508894,8.904061
0,191,-10.01093,-14.6884,-10.38135,-14.72384,-11.79341,-11.7199,-9.548399,-7.675171,-9.344864,-2.953071,-9.52038,-9.198535,-5.539965,-7.863787,-9.358509,-5.794332,-0.2606225,-6.275597,2.082306
0,192,-6.618847,-11.26879,-7.233624,-11.7919,-7.791325,-7.935557,-6.503001,-5.734292,-5.438282,0.867394,-5.805942,-5.338932,-0.7166402,-4.46676,-6.002112,-2.750807,1.934156,-2.96702,4.502161
0,193,-5.33853,-9.602214,-5.475011,-10.45634,-6.282739,-7.351923,-5.635927,-5.890529,-4.761527,1.466479,-5.601528,-4.424152,0.4230868,-4.02294,-5.60289,-2.574281,3.820886,-0.3484684,4.096084
0,194,7.842946,5.030061,8.567018,3.949376,5.607653,6.509137,8.462805,8.71317,9.202561,14.58132,8.532842,10.12077,14.07569,9.941108,7.307801,11.657,17.18927,12.69743,18.3979
0,195,6.021021,1.584583,5.808115,1.668271,3.91144,3.699507,6.421596,7.794591,6.711839,11.13287,7.277946,7.634341,10.17555,8.007901,6.158755,8.584401,13.57606,9.57307,17.17099
0,196,4.139851,-0.2143531,4.222931,-0.7269168,3.119348,2.16585,3.960733,6.239803,4.618951,8.781785,5.531015,5.353645,7.822089,6.301702,4.726697,6.439691,11.20376,6.316497,15.83505
0,197,0.4407412,-4.417158,0.9906055,-3.50077,-1.368156,-1.25428,0.970755,2.491948,1.704654,6.613226,1.711329,2.961748,5.049314,3.498079,1.468506,4.084202,9.928808,2.995152,12.44994
0,198,-10.9826,-16.64287,-11.72967,-15.58232,-12.63939,-12.86147,-11.19829,-9.530378,-10.12594,-5.761743,-9.116277,-9.635801,-6.490738,-8.31083,-10.14989,-6.801651,-1.161843,-6.777901,0.3961348
0,199,-13.39743,-19.22347,-13.62838,-18.76128,-14.70586,-15.45395,-12.9224,-12.4579,-12.85669,-7.810289,-12.54919,-12.24678,-8.517035,-11.22167,-13.1711,-9.969318,-4.580126,-10.96199,-3.314267
0,200,-15.39193,-20.98112,-15.28426,-20.49008,-17.57548,-17.59949,-14.90195,-14.30983,-14.49605,-10.28795,-14.09573,-13.02043,-9.000262,-12.23693,-14.11688,-10.36032,-4.715758,-12.46698,-4.579828
0,201,-17.07498,-22.03056,-16.9338,-23.44426,-19.72335,-19.2599,-16.96884,-14.16996,-15.60008,-10.49223,-14.41535,-15.41864,-11.73137,-14.69189,-15.27148,-12.63823,-7.343937,-12.16932,-4.630135
0,202,-5.227209,-10.36645,-6.052956,-11.62147,-7.795615,-7.818551,-5.220436,-3.00811,-4.876454,0.4773672,-4.034751,-4.766007,-1.116104,-3.725867,-2.969456,-1.438594,3.739595,-0.6229246,6.520119
0,203,4.321716,-0.5456966,4.048656,-0.1844556,2.492095,2.775382,4.775397,5.923347,5.193164,10.12717,5.277235,5.599018,8.917238,6.301113,6.453257,8.021076,13.72723,7.077694,13.83097
0,204,9.188011,4.757775,9.480255,6.111463,7.998338,8.692101,9.286839,11.86723,10.46127,13.2783,10.97937,11.68321,13.02753,12.36223,11.94668,12.8234,18.59449,10.19594,18.40067
0,205,9.082241,5.118155,10.50063,6.190936,7.339092,9.982541,10.04768,11.65091,11.04439,13.54125,11.86919,12.12612,14.79071,12.86408,12.26156,14.45692,20.17002,9.130855,18.44762
0,206,-3.90501,-7.708309,-2.479228,-9.026347,-4.79822,-2.898901,-3.699095,-3.086945,-2.205215,0.4935614,-1.406444,-1.113421,1.50436,-0.05581314,-1.75288,2.035218,7.802948,-3.39571,6.566727
0,207,-9.620686,-12.74365,-7.121157,-13.07149,-10.53762,-8.191483,-8.83633,-9.983216,-6.552853,-3.428908,-7.165687,-5.46677,-4.08073,-5.470872,-7.329161,-3.40303,1.747736,-9.319944,-1.809724
0,208,-10.15866,-12.59935,-8.188535,-14.13349,-11.39898,-8.503151,-10.02427,-9.047675,-6.742763,-4.104128,-6.910244,-5.146004,-2.682562,-5.617774,-7.00519,-4.085058,2.709936,-8.480556,-1.026914
0,209,-2.354038,-5.458626,-1.467339,-6.658937,-2.998923,-2.624665,-2.629728,-1.580918,0.314414,3.136028,0.9272611,1.300566,5.921505,1.481499,0.5357011,3.318696,10.18937,-0.9016228,6.112783
0,210,3.19289,-1.010003,3.511432,-1.248605,1.869559,3.280783,3.2732,3.416517,6.461758,10.05044,6.679411,7.087796,11.41682,6.947327,5.44647,9.336782,14.78503,6.355726,11.22459
0,211,3.698411,-1.017932,3.543186,-0.6489657,1.624943,3.162297,3.812521,3.797022,6.550453,10.1706,7.299353,7.442446,11.20408,7.673693,6.127921,10.17574,16.63096,7.585068,14.1993
0,212,-8.003164,-12.12368,-8.78146,-13.05213,-10.19251,-9.576318,-8.509524,-8.747108,-5.450583,-2.198684,-4.330903,-5.029017,-0.9547522,-4.810872,-4.441775,-1.768669,3.82987,-3.401939,1.504881
0,213,-10.26394,-13.79581,-10.29282,-14.12047,-12.15882,-10.82934,-11.20375,-11.19526,-7.193477,-3.576638,-6.252656,-6.560617,-1.575682,-6.448559,-6.472607,-4.309008,2.60988,-4.871046,1.147194
0,214,1.214879,-1.188363,3.516489,-1.330382,-0.06983763,2.14412,1.010507,-0.497921,5.194012,8.592836,4.957904,6.473371,9.089448,6.202441,5.048226,8.270896,15.35686,3.833724,12.25331
0,215,0.3230489,-2.307914,2.696271,-2.847506,-0.9755069,0.3503903,0.3997682,-1.489281,4.00113,7.101233,4.692605,4.188472,6.565029,4.640061,4.254405,8.081068,14.22311,2.081172,10.09312
0,216,-6.611036,-9.520728,-4.382744,-10.32498,-7.275432,-5.570081,-7.155361,-7.743948,-3.381482,0.5444128,-3.762527,-2.674441,1.509773,-2.021058,-2.813597,1.4374,8.53592,-3.840386,3.193189
0,217,1.064906,-0.5131967,4.017459,-1.838428,0.5413002,4.083312,1.664112,-1.678747,4.799486,8.375088,3.636439,6.326891,10.42649,6.224808,3.898705,9.042379,16.2371,1.287992,10.90313
0,218,1.004448,-0.6297516,3.520057,-1.544314,0.4690051,4.630377,0.9451626,-0.87597,4.057079,5.831262,3.939673,5.683367,9.424265,6.053123,4.63823,8.368146,14.82758,1.360805,10.64865
0,219,3.144347,0.9185047,4.020286,-0.4139388,2.497747,4.930794,2.31169,0.1504889,6.085162,8.28311,6.216488,7.241722,10.77592,7.322911,7.192645,9.573152,15.49149,5.291079,12.47194
0,220,4.876643,1.968042,4.572492,0.7355958,3.27673,5.153143,5.134224,1.254815,6.575995,8.59799,7.716582,6.743232,11.77134,6.994732,7.555111,10.07301,15.16167,6.917365,11.57525
0,221,1.775195,-3.05052,0.4602615,-4.41104,0.1049323,1.311334,1.007086,-1.60373,1.99396,3.922699,2.826588,2.964277,6.828882,3.838141,5.054299,7.251916,12.11315,5.273849,9.174356
0,222,-5.51265,-11.39715,-7.000938,-12.33,-7.373972,-6.840896,-6.442083,-8.936331,-4.895654,-1.781034,-4.619884,-3.400289,0.3870907,-3.058699,-2.533774,-0.120271,7.970909,-0.3306242,2.94829
0,223,-9.386804,-15.661,-10.58142,-16.69072,-11.51783,-10.83925,-10.40904,-14.611,-8.370099,-4.430487,-7.858037,-7.580276,-3.433503,-7.200018,-6.872607,-3.771088,3.774707,-2.630222,0.2066683
0,224,-8.480709,-15.46616,-10.09727,-15.64619,-10.92278,-8.774939,-9.880051,-13.38388,-7.136254,-3.241932,-6.588649,-6.360861,-3.027264,-5.75002,-6.489576,-2.190921,4.006121,0.2626794,2.388443
0,225,-1.994466,-9.694501,-3.55244,-8.93877,-5.03508,-1.851269,-2.324535,-7.426982,-0.9362772,3.287711,-1.441325,0.693667,3.870248,0.7307207,-0.2878369,4.15947,11.10437,5.826118,7.781886
0,226,-6.682326,-13.81511,-7.399611,-12.56898,-9.160835,-5.965554,-7.449744,-12.04214,-4.913102,-0.8628928,-5.356342,-3.911692,0.9438677,-3.953483,-3.186218,-0.6854666,5.750357,0.7792039,1.473308
0,227,-5.006954,-12.58076,-6.813112,-11.6244,-7.617281,-5.690187,-6.457168,-10.56489,-3.832883,-0.9017859,-3.137829,-2.821792,1.532307,-2.735045,-1.753292,0.2863197,6.946419,3.485023,3.155194
0,228,-0.02560259,-7.228265,-2.402629,-6.798618,-2.309352,-0.8828786,-1.457178,-4.881821,0.9346747,4.634981,2.062605,0.9819034,5.685068,1.803179,3.663558,5.407659,12.24133,7.741597,9.046661
0,229,5.929222,-0.6883423,3.125281,0.5239444,3.974225,6.108008,4.500461,0.6352888,6.469429,9.163324,7.391566,6.122439,9.543006,7.172984,10.47402,10.91615,16.27399,12.55201,12.33077
0,230,13.56989,7.788743,10.90746,8.587709,11.7508,13.40745,13.06513,7.546279,13.4312,15.76593,13.50854,14.21351,18.25039,14.58364,16.94556,17.87375,25.33011,18.07282,18.11278
0,231,16.00084,8.711141,12.79497,9.695382,14.65829,15.19964,16.39601,8.743315,15.59653,18.64677,14.87975,16.6702,20.60048,16.81876,18.40818,20.27625,28.32309,18.33373,18.49929
0,232,21.18528,13.48479,17.72202,14.38293,20.1646,20.69045,21.50228,12.79546,20.22249,22.82268,19.68411,20.95027,24.89495,21.46351,24.27832,25.23045,31.68382,22.41359,22.52538
0,233,16.45795,8.928264,14.39036,10.32999,15.09168,15.95084,16.76607,7.819309,15.95572,18.11051,14.8177,17.64878,20.63779,17.93478,20.14069,21.89312,27.49595,17.60125,18.4645
0,234,6.515306,-1.239492,4.152465,-0.3246883,4.547245,5.96429,6.962686,-1.279222,5.225238,6.922188,4.744296,6.932193,10.40885,7.579026,9.75326,11.71015,16.65921,8.095509,9.063563
0,235,12.57344,4.541768,9.38249,5.475726,10.52858,13.30115,13.06324,5.133557,11.40768,12.7109,11.24127,12.39355,15.31147,13.10148,15.9346,17.51852,21.40007,14.53739,13.72068
0,236,11.99671,4.446283,8.977777,4.966157,9.800698,11.62823,12.38318,4.175382,10.29941,11.69731,10.0913,10.97109,13.90505,11.69928,15.26268,16.43218,19.34106,14.37748,12.2756
0,237,8.229462,0.9283772,5.367539,1.083603,5.911131,8.584475,8.581211,1.594801,5.961148,7.68119,6.619655,5.799762,9.670487,7.136814,11.67263,11.82389,16.70485,11.20373,9.658286
0,238,4.632317,-2.57664,2.643069,-1.940698,2.257322,5.681808,6.095188,-3.196846,2.977454,4.546965,2.976357,3.142617,7.703571,3.716584,7.45926,8.333744,13.32592,5.979319,3.696464
0,239,9.290672,3.085575,8.147806,3.975668,7.727079,11.73524,10.70277,0.4123405,8.785847,10.42395,7.685781,9.425471,13.56034,9.64816,12.35684,14.27403,19.49729,9.630677,8.17454
0,240,10.96762,5.065969,8.890959,4.061678,9.097462,12.78023,12.34855,2.718312,9.655674,10.43951,8.936423,10.80647,14.17619,10.85862,14.18641,15.32809,20.15311,10.59973,9.861758
0,241,11.45981,6.532441,10.46386,6.946032,9.502247,14.38017,13.04946,3.671885,11.84649,12.45283,10.13997,13.39381,15.99468,12.79589,15.87305,17.17558,20.65994,10.675,9.726448
0,242,3.146452,-2.612805,2.00162,-0.8197908,1.630471,6.25473,4.239967,-4.599997,2.587545,3.27894,0.7240294,4.394969,7.339172,4.666699,7.686646,8.930267,13.29966,2.598594,2.034114
0,243,-6.71073,-14.83044,-9.417913,-13.2546,-8.881574,-6.227038,-6.012212,-14.78384,-8.918293,-8.163963,-9.384926,-7.385264,-3.852013,-6.722176,-3.163714,-2.775092,2.175857,-5.32161,-7.255704
0,244,-3.316195,-10.87148,-6.088197,-9.699459,-4.96439,-2.367641,-2.900677,-10.95501,-4.476964,-2.903332,-5.769837,-3.249619,0.5951169,-3.319044,-0.07082086,0.2274394,4.635244,-1.037597,-5.033327
0,245,-3.428291,-12.05828,-7.229189,-9.983006,-5.880786,-2.11724,-2.923689,-11.20121,-5.566287,-4.953084,-5.731657,-4.625377,-0.4165125,-4.393049,-0.6805396,-1.024622,3.425025,0.1454254,-5.547118
0,246,1.637534,-6.767587,-1.834338,-5.974267,-1.68573,1.300063,1.874435,-6.410775,-2.096772,-1.783126,-1.544834,-1.166059,3.370762,-0.5067799,4.077317,3.659063,8.118324,6.694468,0.4416102
0,247,10.17749,2.851419,8.533016,3.389984,8.197427,11.55413,10.02005,1.497304,7.654741,8.466568,7.143116,8.301168,13.17291,9.099088,12.53314,14.23283,18.75624,14.89909,8.144494
0,248,4.18422,-3.638817,1.86914,-2.495577,1.725903,6.633923,4.609014,-4.92989,1.743346,2.219764,0.681781,3.176549,7.170158,3.522861,6.70469,8.131866,12.2149,8.158253,2.015275
0,249,6.006666,-1.96796,3.733301,-1.517983,3.435183,8.137587,7.21889,-2.873444,2.841587,2.818717,2.095858,4.320473,8.576725,4.535605,7.63323,9.045576,13.38672,8.412652,2.15292
0,250,1.562588,-4.982657,-0.5122342,-6.043553,-0.5588708,3.850704,2.623315,-7.214054,-0.7617853,-0.1773092,-2.328277,0.7072608,4.957313,0.4933524,2.711709,5.436072,9.628534,4.212644,-2.557805
0,251,-9.294741,-17.83179,-12.12946,-17.82274,-11.71701,-7.837327,-8.664141,-18.19297,-12.45081,-10.80097,-14.01847,-11.18431,-6.316102,-10.83634,-8.630959,-5.818493,-2.067152,-4.472935,-12.37829
0,252,-16.54553,-25.35585,-20.05138,-25.74217,-19.35707,-15.54005,-15.79479,-24.49898,-19.16914,-17.84094,-20.15628,-17.8439,-14.17158,-18.00879,-16.24335,-13.77869,-9.742255,-11.39379,-19.17196
0,253,-3.670208,-11.91839,-7.483216,-12.14789,-6.929778,-1.96171,-1.887841,-11.15512,-6.177571,-4.605019,-7.311932,-5.472428,-1.873036,-5.820619,-2.924935,-1.188645,2.222775,0.1197927,-7.745728
0,254,-4.316899,-12.27032,-8.194981,-12.03273,-7.208936,-1.676963,-2.674395,-11.43598,-6.259691,-4.203179,-7.638341,-6.270735,-2.765382,-6.449121,-3.008308,-1.628288,1.290569,-0.3784206,-8.873028
0,255,-13.23928,-21.46577,-17.01515,-21.30447,-15.39103,-11.09093,-12.90163,-18.85603,-14.31305,-12.01011,-14.73144,-14.3888,-9.341636,-13.81001,-10.65145,-9.225168,-5.878069,-8.688766,-14.05412
0,256,3.829985,-3.043785,2.321719,-3.924122,1.324636,6.476006,5.627069,-3.830333,2.756448,5.297651,1.782635,2.63097,8.377108,2.823999,5.143825,8.576364,11.83994,6.621099,1.911593
0,257,9.55944,3.670432,10.18914,4.589673,7.388974,13.59637,11.77016,4.121591,9.625627,11.22927,7.966771,10.15648,14.62884,9.608272,11.50747,13.9005,17.34338,10.68212,5.905504
0,258,9.284743,4.019912,9.510893,5.801799,7.392712,14.30155,12.19141,3.553927,9.665707,10.53828,8.111969,10.10004,14.50298,9.945781,11.2081,14.70443,17.38022,8.068952,4.840931
0,259,1.411298,-3.494668,0.7985833,-2.282108,0.1728214,5.693367,3.588708,-4.865201,1.794888,2.094753,0.4715473,2.369548,5.929321,2.176651,3.31726,6.33406,8.963044,0.06262746,-3.048921
0,260,-12.36642,-17.73059,-12.95726,-17.19748,-13.90856,-7.787943,-9.959144,-17.7367,-11.18187,-8.895552,-13.1234,-11.38909,-6.505625,-11.9677,-9.515952,-7.487953,-4.713985,-12.70914,-16.84115
0,261,-2.07988,-7.337892,-3.25864,-6.996047,-3.043698,2.453299,0.8517774,-7.702598,-0.7708946,1.586018,-2.347062,-1.497405,3.845736,-2.083627,0.1030841,2.155432,5.306955,-4.272449,-7.495472
0,262,-3.907085,-10.26525,-5.52445,-8.728683,-5.067839,0.2114701,-0.7307236,-9.757358,-3.249817,-1.157708,-4.567094,-3.928433,0.7094378,-4.125726,-2.525803,0.03517834,2.507575,-6.206251,-9.51756
0,263,-6.209531,-13.06276,-8.260072,-12.21504,-7.262307,-1.225067,-4.26025,-11.506,-5.993854,-3.546803,-6.880582,-6.936671,-1.565182,-6.325536,-4.648703,-1.877726,-0.1715208,-5.973206,-9.044089
0,264,-3.53056,-8.75056,-5.203961,-9.913869,-4.91329,1.200985,-1.944203,-8.522466,-3.150596,-0.5633231,-4.469605,-3.232015,1.846789,-2.886785,0.08847257,1.903177,5.141132,-3.632546,-3.821584
0,265,-12.50593,-17.89589,-14.2058,-17.97236,-14.08959,-8.712352,-10.42223,-17.67984,-12.18116,-9.694027,-13.15197,-12.61805,-8.019,-12.00064,-8.974599,-7.191021,-5.168947,-13.64372,-13.17249
0,266,-5.564562,-10.96161,-6.970431,-10.96396,-6.337858,-1.725142,-3.984374,-10.18946,-4.722158,-2.560669,-5.848703,-4.572579,0.466392,-4.446386,-2.430846,-0.7967201,2.27056,-6.825964,-6.52381
0,267,-9.257174,-14.56242,-10.6202,-14.03503,-9.849537,-4.716225,-7.304552,-13.12646,-8.017214,-5.082428,-8.863755,-8.794807,-2.552938,-8.453557,-5.068779,-4.920544,-0.4394871,-11.37079,-10.32999
0,268,-5.485722,-10.42261,-5.824593,-9.302306,-5.942609,0.3285826,-2.860887,-9.666142,-3.24126,-0.2012004,-4.990914,-3.935898,1.223956,-3.825359,-1.388392,0.01779553,1.642811,-9.105412,-7.221841
0,269,4.625906,0.5539945,4.498044,0.2659196,4.175873,11.48872,6.906734,-0.1181511,6.929261,9.296049,4.53509,7.553837,12.11872,6.709262,8.292487,9.428306,11.18743,1.403019,3.763247
0,270,3.384886,-0.610185,3.075773,-0.8227558,2.908334,10.68591,5.38819,-0.0215611,5.520381,7.476787,4.235088,4.886381,8.633126,4.806422,7.513792,8.033439,9.668489,0.7889383,2.269341
0,271,-5.502747,-10.17322,-6.400464,-10.43282,-6.299506,1.058296,-2.794513,-11.06662,-3.588541,-1.665726,-4.94844,-4.431295,0.4495253,-4.933186,-2.343003,-1.073242,0.4703407,-8.248663,-9.430506
0,272,-6.459066,-10.37633,-7.174944,-11.93395,-7.20457,0.8077697,-4.294815,-11.37239,-3.629981,-1.909577,-5.676228,-4.096873,0.8662092,-5.184408,-1.671089,-0.5935688,1.904151,-8.426175,-11.45044
0,273,-7.169384,-11.8108,-7.922212,-14.41246,-8.163658,-1.563083,-5.523474,-11.75974,-4.1376,-1.627752,-6.324914,-4.532619,0.3746037,-6.130216,-2.115866,-1.5651,1.015144,-7.502033,-11.81765
0,274,-8.794085,-14.30213,-9.81137,-15.72337,-10.3949,-3.553499,-7.309693,-13.55348,-5.621652,-2.869484,-8.066456,-5.116812,-1.865956,-7.131472,-4.160362,-3.829217,-1.2043,-7.75355,-10.92014
0,275,0.03178261,-4.747937,-0.6964067,-5.993726,-1.539957,7.232275,2.071433,-4.790362,3.642135,6.471869,0.6609256,4.452147,5.743962,2.312034,5.559124,5.084152,8.280155,-0.7561304,-0.6419864
0,276,-7.314761,-11.69766,-7.919522,-12.37737,-8.530347,-1.156115,-4.751585,-12.63979,-3.870163,-1.031869,-6.36364,-4.435744,-1.654189,-5.767828,-1.917419,-1.701067,-1.776333,-9.879243,-10.45855
0,277,-25.88265,-31.33854,-27.74677,-32.02439,-27.89487,-21.62941,-23.47712,-31.90051,-23.1466,-20.59341,-25.12403,-23.57959,-19.64669,-25.28948,-21.21909,-21.34259,-21.07073,-26.41467,-30.31104
0,278,-23.76248,-31.14283,-26.78525,-32.16199,-25.51766,-20.65929,-22.50733,-31.40329,-21.79561,-18.60706,-22.57826,-23.46871,-18.35857,-24.37022,-19.94479,-19.80762,-19.92727,-21.3056,-27.38638
0,279,-21.94004,-30.10974,-24.71581,-30.15051,-24.54355,-19.3483,-21.25433,-27.99028,-20.25302,-17.47748,-19.78645,-22.49907,-17.46667,-22.95214,-17.40076,-18.36751,-18.40658,-17.02559,-24.48445
0,280,-5.485539,-12.98554,-7.801164,-12.64037,-7.960289,-1.389207,-3.333793,-12.12537,-3.41304,-0.5137822,-4.415372,-4.613146,0.1939606,-6.087523,-0.5612757,-2.347111,-1.273355,-4.199325,-9.566515
0,281,-2.448478,-8.991702,-4.180432,-8.408303,-5.27599,3.348917,1.166582,-9.102432,0.5575244,3.421837,-1.124688,-0.4769369,3.267268,-2.427517,2.776538,1.641081,3.034336,-3.662598,-7.310912
0,282,-15.10342,-22.75432,-18.1939,-22.89096,-18.32366,-12.51473,-12.57936,-21.2258,-13.24018,-11.02686,-13.71422,-13.87335,-9.17331,-15.81262,-10.7128,-12.42185,-11.22254,-13.91288,-19.36173
0,283,-21.57402,-29.63063,-24.24162,-30.15008,-25.57648,-20.35133,-19.26336,-28.42115,-19.8024,-16.93487,-20.75459,-20.08626,-15.15506,-22.70345,-16.81752,-19.31433,-17.88366,-18.41846,-25.77966
0,284,-19.29563,-28.84255,-23.12536,-29.74415,-22.83616,-18.99243,-17.44969,-26.36533,-18.69687,-14.43553,-19.47057,-19.67902,-14.28302,-21.36392,-16.18888,-17.39317,-15.41793,-14.6371,-22.49271
0,285,-3.891709,-13.70871,-8.156419,-14.35294,-8.266401,-2.573066,-0.7108657,-10.46563,-3.236718,0.4100852,-3.962351,-3.885823,1.219714,-6.156808,-1.393309,-2.25936,-0.3085143,-0.5331109,-8.39549
0,286,5.390979,-3.625477,0.9274514,-3.829954,1.993577,7.215761,7.927874,-1.502738,6.410509,9.480577,5.819973,5.472207,9.813225,3.246057,8.865037,6.158387,7.179917,7.642789,0.6476063
0,287,8.296568,-0.8467384,3.465798,1.021535,5.324917,10.76809,11.15959,2.556105,8.821343,11.049,8.989436,7.490526,11.65217,6.173251,12.75232,8.637843,10.46306,8.167673,3.032255
0,288,9.143391,0.8614624,5.89655,2.565208,5.97689,13.24512,12.56291,3.135602,10.20985,12.39569,9.7891,9.050392,13.03517,7.782323,13.1617,11.17695,11.97921,8.623971,4.14635
0,289,12.82741,5.388018,10.04457,5.429222,10.24394,16.9337,16.54961,5.537116,13.95819,16.43594,12.96163,12.85832,16.97506,11.47186,16.79458,15.56009,16.47093,10.49132,7.133103
0,290,10.5426,3.585087,7.288655,1.884725,8.419292,14.32889,14.37448,3.260804,10.32914,12.0578,9.686024,9.364739,13.74698,8.048715,15.12237,11.63726,13.93607,5.865782,3.39437
0,291,8.829298,1.284894,5.759859,0.7874082,6.581999,14.11545,12.91101,2.505297,8.97975,10.63403,8.046221,7.907269,11.29734,7.075316,13.02132,11.48704,12.89629,4.537938,1.467031
0,292,3.53421,-3.893468,1.02411,-4.125266,1.019097,8.094454,7.9585,-3.691568,4.329813,6.332969,2.513551,3.434958,6.499302,1.788555,7.065671,6.207711,5.525824,-0.3661599,-5.467228
0,293,8.04816,1.061992,4.856189,0.03016882,5.548871,14.39909,12.78283,1.240271,9.42685,10.72729,8.189334,7.756431,10.10949,5.504085,12.03915,9.168201,8.502637,3.535432,-2.683405
0,294,15.53213,8.46547,12.76329,7.21792,13.02206,21.74646,20.10008,10.57048,16.46425,17.46488,15.99481,14.35452,17.50462,12.75094,18.69181,16.82713,14.64124,11.53791,5.112549
0,295,12.71787,6.050615,8.310122,5.595241,10.7268,19.50826,17.3513,7.691208,12.7,13.38712,12.40361,10.13949,13.25535,9.063298,15.62749,12.50668,10.348,7.606803,1.287559
0,296,2.247027,-5.452269,-2.439713,-3.893386,0.4467328,8.764379,6.587904,-2.881449,2.295605,2.7272,2.528229,-0.5125805,3.329242,-1.213236,6.279326,1.756824,0.3106371,-2.952779,-9.496791
0,297,-14.45664,-21.92882,-18.94568,-21.95292,-17.35896,-8.977178,-10.02861,-18.24672,-12.99361,-11.96528,-13.9339,-14.46546,-12.45774,-16.54274,-10.49985,-13.40137,-15.24132,-17.87696,-24.98484
0,298,-4.482858,-12.05673,-8.974751,-12.23921,-7.669961,0.7793695,0.4227986,-9.031392,-3.398342,-2.496143,-3.921606,-5.527111,-3.090099,-7.538877,-1.737978,-3.711447,-6.302492,-7.63587,-16.44179
0,299,7.414595,0.02478374,3.881374,-0.07162437,5.439503,13.42868,12.67663,0.289161,8.533321,9.72611,7.139159,6.392691,9.848168,4.096852,10.07197,7.538288,4.783845,1.675265,-6.609598
0,300,0.8297372,-4.834649,-1.719142,-5.837746,-1.246745,10.20138,5.240698,-4.842063,3.112045,2.403096,2.092836,2.228977,4.298718,-0.3325781,4.081202,2.191828,0.6958762,-3.763315,-9.733857
0,301,6.160382,1.244462,3.242716,0.02834789,4.900722,15.49872,9.891232,0.8230469,7.210794,5.686156,6.711323,6.14744,8.360694,4.720538,9.405083,7.555656,5.902533,0.7917075,-4.212679
0,302,12.04542,6.421324,10.36851,6.435749,10.0016,20.96742,17.02882,5.850754,12.11357,10.39237,11.92387,11.16107,13.49746,10.22958,15.30942,13.42843,10.49348,4.497468,1.945499
0,303,9.254258,4.029874,8.745914,4.713969,7.708729,19.38244,14.74613,2.683285,11.15505,10.11096,10.25296,9.373413,11.36624,8.114719,13.20464,11.82555,7.19496,0.5035421,-2.477782
0,304,11.54324,7.129094,9.79041,8.151898,11.47656,22.61525,15.71708,3.340112,13.16218,11.76033,12.31205,10.46914,13.76343,9.763054,16.32892,13.25846,7.897163,3.089057,-1.786014
0,305,14.25792,10.47484,14.47847,11.104,13.70148,25.25734,19.0202,5.290535,16.27384,14.2683,14.95842,14.79923,16.54241,13.48118,18.95958,16.75759,11.15303,4.532132,2.053163
0,306,19.60809,18.57101,21.2715,18.42315,19.86849,32.92622,24.28776,10.66364,23.05322,20.30293,20.88618,22.13787,23.35047,20.83757,26.08674,24.80909,18.9986,7.452789,8.133312
0,307,23.49261,23.60814,24.83608,22.99211,24.40474,37.38633,28.61803,14.23316,27.11687,23.57022,25.64873,25.51484,27.24178,24.77073,29.7367,29.37731,22.46565,8.795916,11.14963
0,308,18.65939,17.83283,20.68981,17.95964,20.09624,32.62934,24.50203,8.718117,21.96143,19.16307,19.2283,20.87614,21.54586,19.86517,23.75567,23.87753,17.26719,2.332735,4.81063
0,309,6.875953,5.91903,9.861671,6.634855,7.927614,21.61236,13.11828,-2.507505,11.04813,9.201227,7.934548,10.02951,11.4658,8.481114,12.2323,11.79377,6.481007,-8.866747,-5.984953
0,310,5.605563,5.906523,7.661273,4.672482,6.984607,20.18093,9.90946,-2.094263,9.051713,6.53871,6.68839,8.23593,10.79572,7.551152,10.83827,11.2044,4.827188,-7.256268,-4.261922
0,311,9.781404,10.40199,12.28103,9.01405,12.18668,25.52132,13.61597,1.427165,13.93731,10.84314,11.76989,12.38386,13.95917,11.6233,15.23496,14.9166,7.847759,-3.60745,-1.727726
0,312,-3.84167,-3.253258,-1.588348,-3.046914,-1.789756,11.46529,0.341947,-12.36798,0.04138636,-3.173466,-1.716759,-2.465648,0.136545,-2.728249,2.143985,1.25095,-6.689978,-17.22732,-17.31775
0,313,-13.67309,-12.78259,-11.85985,-13.10083,-12.33584,2.870413,-9.762833,-21.85369,-9.666819,-12.98494,-11.8332,-11.41261,-9.232765,-12.22522,-8.083804,-8.78395,-16.25523,-24.81054,-25.69549
0,314,-8.359142,-6.747567,-6.141611,-7.834281,-7.290425,8.054808,-3.888216,-17.07392,-4.434987,-7.063256,-8.282586,-4.996972,-3.085963,-6.795294,-3.641643,-3.487495,-10.18713,-19.63144,-21.00444
0,315,-2.907928,-1.316928,-1.01255,-1.664074,-1.898026,12.7545,1.181818,-11.07313,1.760335,-1.180735,-1.693504,1.348073,1.890342,-0.5410742,2.669348,2.223331,-5.013887,-14.16427,-14.07819
0,316,5.814105,6.166978,7.293001,6.033164,7.372307,21.15607,9.492696,-4.103716,10.1995,6.88306,6.836333,9.988789,10.00699,7.9471,10.96337,10.23508,3.444247,-5.408572,-6.222924
0,317,5.632782,6.56518,6.631119,4.572433,6.805372,20.89976,9.292813,-3.659319,9.711174,6.939985,6.446212,8.862179,8.715314,6.570297,10.91354,9.004459,1.927527,-4.709311,-6.572737
0,318,6.433693,8.296913,7.69988,5.803956,7.651779,21.39399,9.750383,-2.139826,10.14448,7.124109,7.05837,8.855815,8.726686,7.047282,11.97642,10.28944,2.347679,-3.508393,-6.183692
0,319,7.102654,8.033259,8.698798,6.915953,8.451569,21.63586,10.56344,-2.83697,10.22993,6.787007,7.338035,9.182852,9.632854,7.581908,11.59694,10.61791,3.108397,-2.968347,-6.251259
0,320,6.051022,6.044727,8.141419,6.87827,8.221153,22.36848,8.668904,-3.491014,9.818003,5.901337,7.749577,7.992035,8.369521,7.032849,11.15257,9.168812,1.017999,-3.388913,-6.660814
0,321,4.841698,4.459061,4.188327,4.102577,6.558048,20.59328,7.019502,-2.8827,8.012603,4.360185,6.637188,6.15909,6.554286,5.353664,9.807178,6.942754,-1.688213,-3.38133,-5.687726
0,322,7.694353,7.889939,7.22836,6.528399,9.027519,22.5642,10.50657,-0.1484531,10.78908,6.675908,8.518772,10.54531,10.7347,8.946671,10.83415,10.9255,3.567132,-0.8928134,-3.54524
0,323,12.5002,13.83542,13.27674,12.65681,13.71018,27.31536,15.76627,5.061082,15.44789,11.24956,13.35652,14.58638,14.82999,13.36134,16.16775,15.99168,8.203658,2.842543,0.652306
0,324,13.31078,16.13064,14.9199,14.41323,15.10918,30.11259,15.86688,6.353363,17.43479,12.64704,15.95358,16.05663,15.92982,15.05406,17.62686,17.32807,8.653515,3.877228,3.409903
0,325,12.71698,15.88868,13.89712,13.74534,15.41377,30.1573,15.44474,4.849252,16.34267,12.32159,13.74994,14.81665,15.21224,14.0602,16.07782,16.85602,7.908505,2.312491,1.163481
0,326,13.67092,13.95243,12.64748,13.53852,15.64969,29.20445,17.05099,5.690972,15.21812,10.30376,13.78071,13.6,13.08874,13.35153,15.46119,15.92759,7.556551,3.156279,-0.1704374
0,327,14.0188,14.45295,12.80654,12.61987,15.43892,29.37138,17.60923,6.677135,15.02123,9.658178,13.57889,14.02087,11.82186,13.72027,16.12702,16.52357,7.921114,2.896024,1.049619
0,328,-4.975142,-4.68968,-7.942357,-6.128758,-4.40218,9.573706,-1.698178,-10.72842,-5.046953,-10.54185,-6.203274,-5.856446,-8.682158,-5.757722,-2.968159,-3.284388,-12.62113,-14.42611,-16.80704
0,329,-0.8763019,-0.8256661,-4.853359,-1.936244,-0.2472391,13.18212,2.480857,-7.05869,-2.272397,-7.256485,-2.936737,-4.610577,-5.732095,-3.841566,1.339429,-0.7567649,-10.48034,-10.1001,-15.08924
0,330,8.486284,8.949218,5.639846,7.080996,9.424671,21.98271,12.59171,1.278003,7.097012,1.80523,6.268207,5.367807,4.682717,5.711191,9.156429,8.55276,-1.56856,-2.841992,-6.224105
0,331,6.314658,6.813924,4.480421,5.874368,7.306615,20.44281,11.11615,-0.3970762,5.312242,0.149539,4.61831,2.985812,2.801504,3.75857,6.277292,7.217152,-4.130739,-5.90645,-9.013715
0,332,6.668754,6.36991,3.944554,6.42122,7.446093,21.10806,11.8184,0.4081365,5.07147,0.4531742,4.103739,2.501625,2.344526,3.840699,6.749293,7.878142,-3.832135,-5.709506,-8.910792
0,333,7.289996,7.038891,6.368298,7.207684,8.287766,22.38904,13.03797,0.6208047,6.075621,0.8667032,4.199422,4.898062,3.914733,5.093602,6.354021,7.763083,-2.190467,-6.381942,-9.541843
0,334,4.748736,4.212122,2.488795,4.542772,5.917678,18.50638,10.36401,-1.186229,2.969005,-2.563878,0.6459622,2.747182,0.5876645,2.811726,3.786786,4.837822,-5.165711,-9.858366,-12.3992
0,335,6.706404,6.101507,4.37523,6.513066,7.413015,21.12463,12.04955,2.269221,4.419549,-2.599479,3.389906,3.8105,1.394187,4.56809,5.959558,7.053896,-4.296748,-7.23044,-10.42528
0,336,6.998827,6.734639,3.775811,6.435202,8.030478,21.52248,12.04939,2.720986,4.60324,-1.88601,3.906365,3.312555,1.497118,4.008006,6.27935,5.892204,-4.304584,-6.458989,-9.961812
0,337,6.095434,3.699131,1.806913,4.349751,7.026725,18.84598,10.99477,0.8328038,2.722022,-2.91451,2.114036,0.5627489,-0.8768559,1.292121,5.352541,3.1351,-7.252841,-6.141306,-13.35319
0,338,5.977917,3.189758,1.308977,2.753541,6.058797,17.88555,11.03388,0.7256194,2.463948,-2.384794,1.307133,0.739261,-1.488451,1.276819,4.818607,4.018202,-7.273941,-5.005618,-12.19628
0,339,0.5352486,-2.811528,-3.645523,-2.523575,0.2557047,11.65206,6.163699,-4.092661,-2.964473,-7.880605,-4.915563,-3.598171,-6.440388,-3.564762,-2.526881,-0.9029897,-11.84363,-10.13583,-18.61727
0,340,2.457517,-0.7227159,-1.839533,-2.202715,2.312127,12.82902,7.684394,-2.347682,-1.214205,-6.563332,-3.083761,-1.67451,-4.833963,-1.952114,-0.04858591,0.9925496,-9.587138,-8.259267,-17.62667
0,341,8.551256,5.683286,4.0674,5.105531,8.634355,19.67455,13.86696,5.243347,5.257517,1.448696,3.341708,3.92929,2.043992,4.114913,6.979861,6.729049,-3.334745,-2.369934,-9.67365
0,342,11.10061,9.331172,7.84277,8.273569,11.04177,23.59712,16.14905,6.97792,8.698378,5.042214,6.429072,7.707859,5.063479,7.648129,9.825929,10.29636,0.8179473,1.134712,-4.617876
0,343,12.06565,9.559577,9.003075,9.618188,11.99913,25.54332,17.40852,7.718668,9.904387,5.909914,7.870517,8.943112,6.715001,9.054153,10.60939,11.61484,1.778653,1.659603,-3.636332
0,344,13.75426,11.55355,10.67691,10.41229,14.10383,27.25737,18.88314,8.925508,11.38038,7.207903,8.816501,11.11502,6.90256,10.78047,12.45973,12.45177,3.110628,2.369573,-1.596889
0,345,8.258907,6.020157,3.962818,4.460216,7.91121,21.25926,13.23164,3.811616,5.445214,1.106649,3.816031,4.435014,-0.3565859,4.475253,6.710998,6.529231,-4.030764,-1.665069,-6.350836
0,346,4.564902,2.253563,0.7292515,1.094371,3.967701,18.21404,9.420894,0.1520544,2.043553,-2.238631,1.073129,0.5475532,-3.607435,0.5837457,3.986833,2.11784,-7.328673,-4.758299,-9.077257
0,347,5.142363,4.433276,2.021865,2.343426,4.970418,19.33868,10.03605,0.12985,2.841714,-0.7489821,1.428638,1.001397,-1.910885,1.659781,3.980794,4.658116,-5.589295,-4.462056,-7.381539
0,348,0.183719,-1.612062,-3.007223,-2.779615,0.2175801,14.04604,4.630517,-5.128626,-2.651124,-6.567707,-3.688732,-4.606022,-7.665778,-3.649072,-1.508525,-0.8780524,-10.06497,-8.319894,-13.06402
0,349,-8.571002,-12.1253,-12.38349,-11.84624,-9.815862,3.440685,-3.427374,-16.14056,-11.87534,-14.94658,-14.04772,-12.62826,-16.36615,-12.8027,-10.50861,-10.9538,-20.26826,-16.2594,-22.05173
0,350,-8.56641,-12.38224,-12.94288,-12.75352,-9.994966,3.100189,-4.151535,-16.83372,-11.97578,-14.75449,-13.48153,-12.81918,-16.12754,-12.72373,-10.46345,-10.80885,-19.05907,-14.40503,-19.29212
0,351,-12.31451,-15.33548,-16.89042,-17.1483,-13.78988,-0.2162308,-9.385242,-19.45052,-15.40187,-17.73366,-16.93878,-16.38855,-20.69796,-16.21745,-12.47176,-14.424,-22.698,-15.52594,-20.26301
0,352,-10.14134,-11.77145,-13.98449,-13.78255,-11.20359,2.359329,-6.62828,-17.07395,-12.20557,-13.88742,-14.64865,-13.56435,-16.6291,-14.16268,-10.01306,-12.26739,-19.68728,-14.43075,-20.70835
0,353,-8.133039,-10.25,-12.52025,-11.94698,-9.132395,4.386779,-4.04941,-16.56404,-10.83401,-12.41642,-13.24286,-12.03008,-14.29914,-12.6137,-8.687285,-11.19201,-18.46157,-13.7453,-18.72769
0,354,5.606253,3.93278,2.807794,2.523195,4.877517,18.71496,9.749599,-3.278269,2.953072,1.433569,1.156539,1.011778,-1.371578,1.013067,5.652256,2.570028,-4.834026,-0.9424601,-3.699291
0,355,7.624493,6.961539,5.860462,5.102145,7.142031,21.53985,11.64056,-1.205468,5.948809,3.544441,4.46841,4.170103,1.058941,4.320144,8.984398,6.310496,-1.624242,-0.3281377,-0.6187444
0,356,7.139451,7.499468,5.292474,6.757814,7.603737,23.67192,10.26056,-0.9666678,6.53245,3.232209,4.881471,4.857796,1.617419,5.717751,9.813134,8.074347,-0.2595807,-0.9682631,-0.2069531
0,357,5.857428,6.605663,3.891229,5.54983,6.731117,22.86205,9.389024,-3.802158,5.213923,2.397109,2.627085,3.762897,0.1113937,4.954922,8.185215,8.203272,-1.809674,-3.922555,-1.259639
0,358,1.296753,2.318012,0.1466416,0.8053395,1.738183,17.89358,4.691733,-8.033631,1.364903,-1.669637,-1.137318,0.3729053,-3.465796,1.108552,3.753755,4.277774,-5.920177,-7.690092,-4.774571
0,359,5.956936,5.58414,4.681604,5.056431,5.44058,22.33969,9.602476,-4.32127,6.090098,3.301126,3.364362,5.358605,1.662891,5.251206,9.658838,7.948533,-1.092271,-1.939036,-0.9895015
0,360,4.139364,3.924148,2.978713,3.311176,4.077844,20.10538,8.332335,-6.164751,4.069287,2.432992,1.324345,2.479764,-0.0288817,2.518482,6.233924,5.186019,-2.823007,-4.171377,-3.592273
0,361,-0.1881963,-1.822289,-2.416443,-2.938327,-0.5716819,14.49486,3.497455,-10.24051,-0.7729552,-1.890461,-2.624863,-3.027141,-4.978887,-2.575609,2.099221,0.4286907,-7.736326,-6.880648,-7.063468
0,362,-3.436063,-5.626154,-6.071422,-7.35759,-4.066232,11.69218,-0.502029,-13.28613,-4.479184,-5.95492,-5.825695,-6.790591,-8.427528,-6.163086,-0.7632192,-3.340906,-12.55181,-8.447909,-9.431539
0,363,-1.837682,-2.872585,-3.490424,-4.774615,-2.046335,13.16042,0.479451,-11.34515,-2.115478,-3.941148,-3.635964,-3.947567,-5.44208,-3.393149,1.152901,-0.4448671,-8.839509,-6.483142,-6.944846
0,364,-1.597646,-3.090537,-4.037507,-5.346096,-2.785084,11.84139,1.053011,-11.88424,-2.552918,-4.234804,-4.54097,-3.404398,-6.921586,-3.268769,1.032417,-0.3051161,-8.39819,-5.830052,-5.677016
0,365,-13.30239,-17.48509,-15.78984,-17.11287,-15.23113,-0.85259,-11.00039,-22.88399,-14.04501,-14.63596,-14.91706,-16.05087,-18.78205,-15.58006,-10.93189,-13.04072,-19.91376,-13.90206,-16.43324
0,366,-18.23693,-21.89545,-20.30689,-22.35379,-21.0536,-5.97437,-16.42284,-28.1029,-18.77206,-18.85124,-19.41283,-20.85761,-22.89806,-20.50955,-15.1394,-17.66994,-24.8628,-16.41215,-18.772
0,367,-12.96803,-16.76873,-15.13294,-17.82359,-15.38114,-1.53034,-11.04437,-24.08077,-13.82249,-13.12757,-15.15082,-16.12331,-17.86672,-16.29422,-10.71626,-13.77145,-21.56643,-11.29452,-15.37338
0,368,-12.79799,-17.45924,-16.10419,-18.6222,-15.56122,-2.163262,-11.04924,-21.9901,-14.35643,-13.53662,-14.54048,-17.39614,-17.58311,-16.96737,-11.36145,-14.12083,-22.01455,-9.640466,-15.02186
0,369,-6.196909,-12.12798,-9.624641,-12.20025,-9.331985,5.14888,-5.004445,-14.85742,-8.520723,-8.410913,-7.562007,-11.48644,-11.01999,-9.844419,-3.599576,-6.37256,-13.35333,-2.188085,-5.946954
0,370,-7.838153,-12.55553,-11.76262,-13.08669,-10.49861,3.916863,-6.70393,-16.14677,-9.700934,-10.18431,-9.057829,-13.15466,-13.12864,-11.71247,-5.002749,-7.783054,-16.22943,-4.466978,-10.52753
0,371,-6.994196,-11.77902,-11.21948,-12.69245,-10.41145,4.262877,-5.960168,-14.44249,-8.775337,-10.40748,-7.68355,-11.42515,-12.59998,-10.94413,-3.85049,-8.357337,-16.45913,-2.994784,-9.697851
0,372,-5.24186,-8.14505,-7.643776,-9.856672,-8.748744,7.590337,-3.603863,-11.0823,-5.929722,-6.518319,-5.492817,-8.886052,-10.52149,-8.399474,-1.156292,-5.133324,-11.85304,-2.124203,-6.296654
0,373,-6.954823,-9.636118,-9.439416,-11.4304,-9.314877,6.399715,-5.977994,-12.47043,-6.7091,-8.004515,-5.920372,-9.93347,-12.66175,-9.649731,-2.820938,-7.139465,-12.22893,-4.154706,-9.131164
0,374,-3.958902,-7.695038,-6.675632,-7.831518,-5.779474,8.896922,-3.135809,-9.20875,-3.51063,-5.263297,-3.009048,-6.264709,-8.962869,-6.16078,-1.273395,-4.160523,-9.63443,-0.8824751,-8.018622
0,375,-3.758289,-7.4264,-6.033669,-7.858101,-5.213124,10.43568,-2.547284,-9.051064,-2.899658,-4.266228,-2.722348,-5.776468,-6.831522,-5.874361,-1.151702,-4.026257,-9.696641,-1.633381,-8.418944
0,376,4.972808,2.470087,2.897102,1.486006,3.226172,20.94944,6.927378,0.4370693,6.577495,4.668924,6.374032,3.824002,0.9665807,3.542174,8.164909,6.036599,-0.4671363,5.511883,0.09422269
0,377,2.875569,0.1157037,0.260965,-1.136715,1.080951,17.43312,5.926083,-1.414636,3.513745,2.278085,3.811586,-0.4779061,-2.370765,-0.3783753,5.90555,2.511258,-4.690446,1.094317,-4.2744
0,378,-0.620911,-4.0974,-3.992165,-5.803554,-3.448857,13.4213,2.522447,-4.561756,-0.8436453,-2.502614,0.6601828,-5.432985,-6.286775,-5.158624,1.71868,-1.815156,-9.087245,-0.4515641,-8.141586
0,379,8.024169,5.546491,4.947905,4.297741,5.136114,23.53413,11.17474,4.603295,7.852315,5.356631,9.172024,3.478095,1.879627,3.449269,10.61111,6.186106,-0.652866,8.237714,-0.2592865
0,380,1.100455,-0.4933131,-2.065275,-2.7474,-0.5825667,15.75562,4.071651,-2.334086,0.7100013,-1.513561,1.20835,-2.871775,-2.879413,-2.550141,3.286914,0.6170326,-6.034418,-0.8482043,-7.236186
0,381,-10.061,-12.03605,-12.58929,-15.24306,-12.67461,4.478703,-6.983038,-13.0997,-10.51736,-12.75679,-10.25121,-13.56901,-15.62933,-13.807,-7.779688,-10.82444,-17.20031,-10.81034,-17.71778
0,382,-5.712406,-8.976467,-8.541138,-10.16973,-8.513282,8.965251,-2.619879,-9.019121,-6.028196,-7.228335,-5.573367,-10.15458,-11.47269,-9.98423,-2.817204,-6.790165,-13.39534,-5.323525,-13.45601
0,383,5.132881,2.539926,2.023628,0.4613671,2.646146,18.83344,8.615013,1.084558,5.154684,3.79626,5.853971,0.9706353,-0.01973036,0.5155441,7.662154,3.355296,-1.827976,4.095719,-3.70734
0,384,4.371632,0.4302477,1.101166,-0.6886099,1.596211,18.18952,8.454422,-0.5550222,3.308452,1.862975,2.333407,0.2941129,-3.090526,-0.5450729,6.201034,2.192681,-4.17764,2.678335,-6.985583
0,385,5.111806,0.9582204,1.712205,-0.5822659,2.310223,19.61938,9.021901,-0.3894547,4.318798,2.797912,3.961026,0.6104506,-2.52528,0.2488241,6.772302,3.72116,-4.88766,3.915931,-5.352857
0,386,-0.7754213,-4.794801,-4.967992,-5.82205,-3.491734,11.93637,3.634634,-5.916484,-2.422804,-3.520516,-2.088756,-7.508613,-8.618563,-6.916864,0.1027901,-2.148392,-11.9208,-2.696149,-13.32873
0,387,1.985192,-1.633266,-2.671955,-2.130129,-0.4740718,16.61711,7.001056,-2.184985,0.234504,-1.855472,-0.1618365,-4.287601,-6.364122,-4.387652,3.221325,-0.8426655,-10.08644,-1.907608,-13.62179
0,388,4.792778,-0.5555094,-0.299185,-0.4526467,2.063576,18.56173,10.02871,-0.002234355,1.425178,0.1054994,0.4904378,-2.246144,-4.137162,-1.974384,4.861587,1.352412,-7.538316,1.085804,-9.645964
0,389,13.15438,9.19402,9.410375,8.158862,10.3309,28.21397,18.1692,7.604517,10.42009,9.318081,8.583117,7.042631,4.145145,6.990136,13.82887,11.05058,2.198182,10.1735,-0.3722073
0,390,17.51569,12.82443,12.66138,12.34478,14.81682,33.54805,22.33448,12.80094,14.51165,12.00004,13.97743,10.86261,7.454427,11.00578,17.66738,14.12293,5.738625,14.64707,3.507025
0,391,12.06696,8.581599,7.292176,6.984261,9.070259,27.90743,16.4839,8.00428,10.04792,7.068611,9.403157,6.637759,3.723129,6.303632,13.5046,10.14246,1.375513,9.920712,-2.241713
0,392,16.67033,13.90963,11.05373,11.54234,14.24211,32.21286,21.47261,10.58394,14.38536,11.34229,13.00509,11.17937,8.049275,10.61035,17.69805,14.70867,4.940976,12.45078,0.6673111
0,393,12.18017,7.986032,6.275244,7.378583,9.705104,27.14998,17.11889,6.788064,9.312393,7.083286,7.448077,6.080361,3.044296,5.562447,11.60608,9.156736,-0.1639076,9.352067,-4.915565
0,394,-5.769861,-11.8861,-11.58222,-12.45464,-8.507547,8.032399,-1.60196,-11.96425,-9.335023,-11.53297,-10.47024,-12.44684,-14.48185,-13.06054,-6.872495,-10.33727,-18.75587,-6.121879,-22.28441
0,395,-9.582563,-15.91132,-16.28602,-16.57099,-13.21466,3.894098,-5.878787,-14.50163,-13.59179,-15.65793,-13.65426,-17.37929,-19.75485,-17.80009,-9.959316,-15.46781,-22.85528,-7.56291,-24.38595
0,396,-7.633049,-15.04137,-14.94173,-15.28606,-12.04408,3.834494,-4.503371,-13.13069,-12.44205,-14.54128,-12.20501,-16.11872,-18.19553,-16.2108,-7.42474,-12.91384,-21.03668,-3.587509,-22.17618
0,397,-1.525242,-8.759495,-7.877222,-9.193679,-6.312334,10.44901,1.855481,-8.717368,-5.625675,-7.327071,-6.806602,-8.344604,-11.32056,-9.300349,-1.058938,-5.418497,-12.45694,3.073718,-16.29151
0,398,2.489825,-4.699117,-5.368681,-5.659107,-1.245742,15.22314,6.375959,-5.288004,-1.988392,-2.801034,-3.345293,-6.063352,-7.230917,-6.239002,1.498148,-1.081432,-9.413689,5.63282,-14.65168
0,399,2.033221,-5.80798,-5.986166,-7.208128,-1.798455,13.1934,4.976648,-6.227435,-1.814136,-3.098946,-2.573104,-5.943771,-7.734016,-6.648625,1.598696,-1.950078,-12.01397,6.759083,-15.05103
0,400,4.962259,-3.533096,-2.046638,-3.744592,0.8623031,15.74935,8.128393,-3.764321,0.8766419,-0.2947037,0.07360697,-2.892438,-4.454041,-3.79976,3.941228,0.2455905,-8.762955,10.12364,-11.86372
0,401,-7.499053,-16.74876,-15.26348,-17.39259,-12.15791,1.900851,-4.760827,-16.56803,-11.61136,-12.47605,-12.02412,-15.67799,-17.67597,-16.95939,-8.482785,-13.04605,-21.36935,-0.1359156,-24.38252
0,402,0.3953491,-7.577904,-8.421904,-9.576756,-3.992407,10.90303,2.471411,-8.212595,-3.622252,-4.078748,-4.54415,-7.540638,-10.18234,-8.490376,-0.1051553,-3.978109,-12.19576,8.475653,-14.28065
0,403,4.580469,-1.867206,-3.057031,-4.082553,0.198739,15.9136,7.830972,-4.643734,0.8528959,0.5096237,-0.3351899,-3.588158,-5.401511,-4.812959,4.564561,-0.139368,-8.742834,10.0075,-11.66252
0,404,1.254265,-6.476807,-6.685025,-6.434282,-2.945585,12.97848,4.616405,-9.086069,-2.658604,-3.157934,-3.42045,-7.440385,-8.86562,-8.031895,0.7069989,-3.5407,-13.07332,6.515463,-14.93122
0,405,-0.6330789,-7.566518,-8.991538,-9.227975,-5.282249,11.19861,1.840423,-11.09828,-4.299767,-4.597063,-4.816215,-8.885532,-10.61476,-9.575372,0.06467438,-4.811386,-12.73617,6.678634,-13.81959
0,406,-2.009265,-9.41153,-9.265687,-10.54713,-5.904234,10.43458,0.923095,-12.34678,-5.121607,-5.556235,-6.248228,-9.311069,-10.78795,-10.09062,-2.072063,-5.2562,-13.51539,3.51977,-16.84519
0,407,-0.3696321,-6.002843,-6.254509,-7.30651,-3.270204,13.06367,3.441933,-9.818601,-2.720592,-2.466429,-4.709917,-7.25117,-7.607568,-8.607292,-0.934526,-4.571756,-11.40953,2.576571,-17.36856
0,408,9.923704,6.755176,5.8029,4.121885,7.288028,25.27156,14.28277,0.6302711,8.86441,8.466912,5.743966,4.714014,3.19841,2.625761,9.732577,7.376661,-0.4875004,11.12114,-8.72285
0,409,7.327103,2.859129,2.680283,2.188955,5.135111,23.22329,11.83887,-2.449639,6.232519,5.277479,2.828424,2.028694,-0.9069836,0.03636571,7.263655,4.664687,-2.383278,7.794782,-14.11815
0,410,6.240766,2.95259,1.794099,2.053928,4.428476,22.28738,10.07292,-2.07565,5.872324,4.88573,2.491236,1.227546,-1.419366,-0.4061929,7.787963,4.906751,-2.651931,6.904692,-15.00611
0,411,5.877863,2.943412,1.240971,2.321165,4.876699,22.56106,9.645505,-2.871779,5.906816,6.201782,2.255468,0.4203073,-0.7704514,-0.4590085,6.782763,5.315123,-4.754348,6.047902,-13.98742
0,412,15.13164,12.68438,10.33377,11.58216,14.6132,32.08899,18.34631,5.906436,14.48856,15.03323,10.94029,9.128444,7.768197,8.428085,16.52179,13.04689,4.028819,14.99505,-2.592059
0,413,11.97219,8.709473,6.731447,8.188267,11.32473,28.46279,16.28037,2.055451,11.47707,11.81874,7.864224,6.953238,5.137357,5.474524,11.75931,8.933893,1.988057,10.18604,-6.349285
0,414,-2.612271,-4.852903,-8.007691,-5.840753,-3.142127,13.31754,1.685035,-12.76625,-2.706448,-2.078193,-6.782136,-6.281228,-7.408099,-7.82682,-3.487477,-4.699131,-12.73474,-5.041068,-18.34651
0,415,-9.008252,-12.63066,-14.90998,-13.69141,-10.04869,5.107404,-5.338808,-17.69844,-9.888859,-8.41443,-13.48178,-13.47105,-13.35855,-14.69008,-8.692563,-11.83319,-19.63076,-9.982438,-22.9653
0,416,4.626924,1.456753,0.4683751,0.1167336,2.57116,20.92556,8.368588,-3.563722,5.115374,6.507241,2.035615,1.248759,0.8686255,-0.484722,5.74558,2.633749,-3.376607,5.868724,-7.250387
0,417,8.561825,6.666218,5.157561,4.362701,7.006001,24.48653,11.73988,-0.7782582,9.182545,9.114079,6.423408,5.42082,3.708939,3.996784,9.088374,8.097899,0.4380466,9.563088,-3.842385
0,418,0.2152358,-1.588244,-4.021164,-3.809186,-0.4961648,15.97593,2.529498,-9.883918,0.4090159,0.2318565,-2.387165,-3.586022,-4.92625,-4.519599,1.10706,-0.6132752,-9.419264,1.231269,-12.46604
0,419,4.843826,1.893645,0.9985474,1.337448,4.665322,21.49497,6.904732,-3.560088,4.737886,5.076891,1.600699,0.9753107,-0.3065695,0.3518812,5.209345,3.099383,-4.825314,6.251596,-7.248482
0,420,7.093716,4.719932,3.710989,4.027728,7.344536,24.51537,8.587213,-0.1476282,7.307385,7.714424,4.971511,2.665237,3.033734,2.421465,8.246974,5.191821,-0.5725787,9.346603,-4.656993
0,421,-3.427338,-7.501819,-8.650373,-9.075008,-3.341843,10.95541,-2.63572,-11.06286,-5.296516,-4.846621,-6.790161,-10.07705,-8.533361,-9.806588,-2.946795,-6.928909,-12.80905,0.2063123,-15.85873
0,422,2.395773,-0.3603688,-3.133441,-3.555732,1.629011,16.64093,4.043692,-5.854882,1.366264,2.533582,-1.763461,-2.58781,-2.58032,-3.865397,2.807918,-0.5675018,-5.654059,6.105612,-11.00679
0,423,6.789704,4.047405,2.052593,1.477591,5.820774,21.614,8.685152,-0.8781701,6.867793,7.916643,3.251917,3.216989,3.216253,1.714678,8.19195,5.464824,-2.168409,9.779706,-6.693025
0,424,16.01981,13.65669,11.52806,11.32926,16.35908,31.92879,17.58244,8.104206,15.66647,15.94535,12.91969,11.46596,13.12334,11.24692,16.9884,15.38835,7.096098,17.1713,2.848411
0,425,11.9609,10.42413,7.4845,7.569735,12.88353,27.43798,13.96704,4.092887,11.07444,11.04377,7.892926,7.291361,8.913586,7.0932,12.13169,11.10819,3.101164,10.91957,-2.601873
0,426,13.50607,11.73089,9.130848,9.55837,13.9115,29.80047,15.96216,6.530244,12.03222,10.71212,9.159339,8.513652,8.210549,8.299796,14.33138,11.80071,3.581163,11.40933,-2.182361
0,427,18.89522,18.68587,15.25128,14.10977,19.54858,37.19294,21.31668,12.61209,18.03769,15.98771,15.54113,14.03914,13.39884,13.28217,20.54727,16.49829,8.724372,16.11407,2.4327
0,428,6.437979,5.341093,1.094108,1.823595,6.482397,23.5831,8.393086,0.9057616,3.780405,2.303735,2.350943,-0.9098637,0.2054957,-0.4461603,8.159047,2.779531,-4.292922,5.635169,-8.139052
0,429,-0.4062461,-3.73643,-6.615448,-6.226186,-0.6033152,15.59773,1.268013,-6.248049,-4.801211,-6.464256,-6.239216,-8.925744,-8.303676,-8.008392,-0.2844377,-5.119832,-13.19197,0.1292303,-15.41668
0,430,10.18328,7.983027,4.219851,4.097229,10.71614,27.05681,12.04146,4.681306,6.513969,5.075891,4.132726,2.424577,2.302595,3.207467,11.41211,6.746838,-3.069446,8.290394,-5.602986
0,431,19.35575,18.6891,14.35191,14.63623,20.13376,38.59837,22.54162,12.70481,15.92331,14.02133,13.57824,11.54957,12.39576,12.40223,19.20336,16.30392,6.93164,14.9916,2.860902
0,432,21.01697,21.42945,16.42532,17.63636,21.39073,40.29739,24.55035,13.51145,17.65741,14.14783,15.63165,13.9862,14.24616,14.21073,21.84328,17.29413,8.383282,15.13965,3.80132
0,433,23.26659,23.47966,19.31508,21.30572,23.92166,42.84727,27.35871,15.42614,20.31315,16.51523,17.39062,17.09796,16.9337,16.83646,24.17909,19.54438,10.5465,15.91668,3.454671
0,434,22.93214,23.50948,18.67334,22.12224,23.89458,42.77344,27.34435,16.43285,19.56861,16.44629,16.45369,15.85134,16.74068,16.60049,23.84863,19.93146,8.770173,14.24691,3.63972
0,435,20.10457,20.24084,16.28037,18.37709,20.67435,40.65841,24.44381,13.90432,17.50258,13.64164,14.77751,14.18204,13.03689,13.97203,20.91966,15.7712,4.443323,12.05787,1.437559
0,436,13.95008,14.31898,9.510368,9.480805,14.74871,32.89987,17.45213,6.807179,10.38287,6.47314,8.347129,7.160254,5.968839,7.349809,13.35078,9.740296,-1.313292,7.106857,-2.795863
0,437,11.5408,11.15,6.439053,7.458725,12.14265,30.56014,14.05359,4.903682,7.527866,3.359984,6.351254,3.769178,3.93982,4.642664,11.84586,7.249551,-3.17145,7.189548,-4.673764
0,438,7.992338,5.828085,2.257452,3.312883,7.843244,24.84221,11.50408,-0.1343454,2.453588,-0.2665356,0.09162958,-0.9751461,-1.227877,0.1378203,7.852133,3.690917,-7.361876,3.003772,-9.388036
0,439,4.499743,0.9888299,-1.735836,-0.4687467,3.891348,20.97402,7.503607,-3.03643,-1.646394,-4.131284,-3.710225,-4.08459,-3.901273,-2.68225,4.500646,-0.01293719,-8.705377,1.04326,-9.433128
0,440,1.062414,-2.039576,-5.145636,-3.934103,-0.6406221,17.40124,3.74373,-5.037197,-5.039943,-7.218826,-6.740131,-7.325949,-7.093971,-5.656898,1.506556,-2.299503,-10.39892,0.01724901,-9.786039
0,441,22.18173,20.22162,16.04202,16.90604,21.45798,38.74106,25.25778,14.74354,16.99099,15.63143,14.13337,14.89057,13.82383,15.75556,21.56199,18.89949,11.19761,19.33437,10.88876
0,442,23.057,21.16092,16.18496,18.30539,22.68448,40.47672,26.36458,15.16593,17.70554,15.90872,14.73935,15.57947,14.82593,16.97139,22.69993,20.7083,11.6146,18.62715,11.11621
0,443,4.570291,2.394703,-1.954022,0.5105184,4.278584,21.26511,6.784671,-2.471225,-1.2628,-3.098727,-3.316523,-3.946716,-4.378838,-1.481352,5.474802,2.071159,-7.754456,1.46621,-5.282231
0,444,-2.887002,-4.378067,-8.40356,-6.860628,-3.689813,14.5889,-0.7300491,-8.433919,-7.918478,-9.788371,-9.337755,-10.61631,-11.31784,-8.417089,-1.811224,-5.445983,-13.56347,-4.857854,-10.34099
0,445,6.371107,4.790335,0.3549418,2.280731,5.237904,24.01716,9.415572,-0.6295446,0.6605489,-0.739813,-1.018264,-2.896038,-2.6187,-0.6812362,7.06357,3.312524,-5.705332,3.833403,-3.779123
0,446,13.98829,12.6811,7.896554,11.00371,13.30888,33.47829,17.08466,7.640165,8.93465,7.046212,6.747513,6.126032,5.479287,8.398486,15.34427,11.79318,1.821912,9.775165,5.000367
0,447,13.76468,14.74545,10.92624,13.01369,14.54035,35.53091,17.02091,7.181573,11.3694,9.094284,8.295208,8.930711,8.414022,10.62666,15.71465,13.74666,3.713542,6.770739,4.675017
0,448,8.044941,8.943344,5.021788,6.81765,8.650249,29.75352,11.66987,1.678896,5.494992,2.776039,2.354218,3.376509,1.799905,4.986491,9.370243,8.380902,-1.191363,0.5810977,-1.799921
0,449,12.24341,14.28597,9.808858,11.8877,13.69408,34.07143,15.334,5.401066,11.51048,8.853076,7.744987,9.63439,7.592187,10.45566,14.09889,13.39688,3.857423,4.5538,2.357403
0,450,14.18157,16.31109,12.1726,13.89931,15.56172,35.58817,17.13384,7.977623,14.34487,10.52881,11.55014,12.76143,10.57161,13.16429,17.18512,15.41886,6.751016,5.682092,4.691031
0,451,3.440098,7.070459,1.058752,4.336901,3.633183,25.41951,6.258263,-1.558155,4.080773,0.2715441,1.457317,2.136823,1.00202,2.161135,7.632996,4.66109,-4.435291,-2.770549,-5.484471
0,452,-6.027635,-3.690451,-8.517218,-5.245501,-6.13919,16.12432,-3.671297,-10.70823,-5.242362,-8.116868,-8.146905,-7.351912,-8.455641,-6.757175,-1.974614,-3.810746,-15.45737,-10.16343,-13.09478
0,453,-8.537728,-7.491977,-10.23771,-8.555429,-8.269243,12.76408,-5.945797,-14.41314,-7.949461,-9.17175,-10.51622,-11.25366,-11.43826,-9.909647,-4.970795,-6.440513,-17.96421,-12.88489,-14.70959
0,454,0.6617596,3.017525,-1.493546,1.803499,1.86304,23.64287,2.008039,-4.684062,1.62575,-0.5739712,-0.2728098,-1.989342,-2.325577,-0.2524755,5.694849,2.497373,-8.106607,-3.475023,-4.288909
0,455,-0.2712797,2.744848,-1.106785,0.8826508,0.3545689,23.3708,1.230727,-6.644539,1.188572,-1.358217,-1.624794,-1.09321,-2.471783,-0.355854,4.87494,2.189806,-6.70371,-3.800353,-4.645096
0,456,-3.46294,-1.925503,-4.023369,-3.468072,-3.091222,18.82222,-2.507004,-11.10812,-1.85355,-3.180742,-5.047609,-4.186714,-5.349883,-3.565684,2.073573,-0.5376742,-8.962722,-4.803147,-7.118511
0,457,0.9254645,1.523201,-0.2308112,0.6210573,1.92175,22.81976,0.8330674,-7.335808,1.513356,-0.6987779,-1.552867,0.002872005,-2.318256,0.9658502,7.12919,2.881819,-5.082976,-0.5375966,-2.007099
0,458,-5.08104,-4.829323,-5.613019,-4.747809,-5.310968,15.26377,-5.043714,-12.09097,-4.152039,-5.599302,-7.773093,-4.505445,-7.870059,-3.89264,0.7533821,-1.90182,-7.972091,-4.395428,-5.263977
0,459,10.62525,11.06268,8.972738,11.76297,10.48752,31.92729,11.37455,2.357133,11.11815,9.670901,8.043171,9.524047,8.025732,10.68702,15.50615,13.6888,7.24114,10.6976,8.590215
0,460,16.69232,18.07173,15.31882,17.6055,17.34887,40.0111,17.74042,7.318928,16.88243,14.14225,14.34084,15.01764,14.91992,16.65354,21.0019,20.04613,11.67488,14.30384,13.56501
0,461,13.99722,15.35176,13.94105,15.19463,14.55226,37.0638,15.52683,3.735145,14.66608,11.75952,12.54858,12.54528,11.30289,13.95741,18.07929,16.71505,7.238003,10.50541,11.34924
0,462,10.20231,10.59143,8.083302,10.8863,10.631,32.09618,11.18188,0.7554184,9.892955,6.605236,8.170471,8.101373,6.717745,9.666149,14.95192,11.61633,2.421945,7.122411,7.552575
0,463,17.81319,19.95707,16.53846,18.98153,18.67606,40.95636,19.15549,9.063627,17.64828,15.27369,14.36518,16.21966,14.88798,17.73314,21.63556,20.58714,11.60662,14.18691,15.06398
0,464,17.75327,19.40276,17.23997,18.7196,18.49122,41.10512,19.38461,8.903728,17.39847,15.71644,13.49053,16.276,15.57522,18.33338,21.68018,22.33714,12.64141,13.74523,15.92853
0,465,18.51643,20.72213,18.09033,20.56789,19.92208,43.19188,18.78339,9.862502,18.37249,16.44308,14.0848,17.63826,16.89437,19.58145,24.05362,22.44136,14.71526,15.96285,17.55679
0,466,6.276152,9.331793,5.798964,8.075148,8.150445,31.05054,6.415766,-2.408594,6.269301,4.122476,1.315593,6.052181,5.191308,7.609017,12.40255,10.23065,2.710405,2.59922,4.319196
0,467,-9.109119,-6.584367,-9.137883,-6.930888,-8.043826,15.34835,-8.677259,-17.20274,-9.081204,-11.04546,-13.72043,-9.080307,-9.065091,-7.592366,-3.329318,-5.36779,-12.6881,-11.74392,-9.862286
0,468,-7.448526,-6.241823,-7.67115,-6.256192,-7.24117,16.89552,-5.798408,-15.88652,-7.641344,-9.103264,-12.23446,-7.807925,-7.104277,-6.952162,-2.212886,-5.092568,-12.37489,-10.59647,-9.585467
0,469,-9.970243,-9.382057,-9.783006,-8.725116,-9.640735,14.31077,-8.580926,-17.8147,-10.12727,-10.92325,-14.70323,-10.74069,-10.86816,-9.390508,-4.796472,-7.274027,-14.11416,-12.2099,-11.27529
0,470,-9.142984,-8.946856,-9.086832,-8.475792,-8.532528,13.26853,-8.633165,-17.06552,-10.24182,-11.49754,-14.27812,-11.30089,-11.97846,-9.468544,-4.627057,-6.929142,-14.52367,-9.927854,-11.7072
0,471,5.926052,4.648408,4.26319,6.209093,6.655173,27.50733,6.311754,-3.394427,3.90702,2.318305,1.070858,2.254697,2.362412,5.07156,10.19715,7.926398,-1.371082,4.598377,4.084371
0,472,-6.418276,-7.999012,-8.724314,-6.653454,-6.364415,13.80631,-5.890768,-14.2731,-8.985799,-9.771235,-12.34056,-9.84897,-9.014318,-7.093996,-2.962611,-4.098411,-12.7718,-6.583587,-7.136938
0,473,-2.857592,-5.477255,-5.210301,-4.598505,-3.135262,16.46496,-2.573474,-10.17094,-6.010575,-6.121687,-9.381428,-6.730964,-6.147266,-4.299878,0.3758034,-2.072714,-10.21972,-1.730676,-2.92451
0,474,-5.756045,-8.946724,-8.672265,-8.264915,-6.188216,14.13098,-6.526465,-13.78039,-9.026122,-9.626493,-11.91852,-9.198846,-9.36657,-6.967465,-3.020678,-5.722731,-11.98647,-1.802792,-3.556737
0,475,-12.37637,-15.18198,-15.61442,-14.59988,-14.11055,8.179497,-12.53248,-20.25757,-15.24866,-15.77872,-17.31704,-15.75028,-13.8592,-13.56235,-8.91929,-11.48289,-15.74321,-7.338477,-8.835018
0,476,-9.307935,-11.70377,-13.22027,-11.14263,-10.9063,10.64696,-10.04629,-15.71266,-11.96425,-12.927,-13.95762,-12.50425,-10.96972,-10.02098,-5.007792,-7.3658,-13.09098,-4.019952,-6.062362
0,477,-4.488132,-6.782443,-8.352093,-6.818393,-5.260508,16.25173,-5.794321,-9.536537,-7.406136,-8.208768,-9.296656,-8.086159,-6.363975,-5.429826,-0.5153026,-3.714039,-8.574659,0.8858522,-0.7706628
0,478,-5.441419,-7.346268,-9.173363,-8.443168,-5.49439,15.32492,-6.659298,-10.97354,-8.026391,-8.190856,-10.37479,-9.182122,-7.493231,-6.851067,-2.877796,-5.283483,-11.18657,-0.3678361,-2.983718
0,479,-6.578962,-9.874048,-11.07391,-10.32125,-6.103788,12.9995,-8.731123,-12.68098,-9.753908,-8.699112,-12.12055,-11.52851,-10.78052,-8.468957,-3.496982,-6.94151,-12.61704,-0.2966832,-2.858187
0,480,-0.2419997,-2.869406,-2.874872,-2.693008,0.08735105,19.78443,-1.770346,-6.331222,-2.110322,-1.081543,-3.831661,-4.251782,-1.982019,-1.394013,2.567518,0.2761759,-4.172861,5.588197,4.195902
0,481,11.91222,10.74024,10.1022,10.63168,12.37861,33.72084,11.50795,4.497995,10.50241,11.53075,7.091372,9.386301,11.26009,11.31934,13.83063,12.96756,9.131222,15.75073,14.90598
0,482,13.77574,13.91675,12.90487,13.0318,14.28252,36.61912,14.81566,8.00665,12.56479,12.68342,8.845386,12.03204,13.31203,13.56865,15.32417,14.82379,9.730341,13.58095,15.31915
0,483,13.87103,15.37234,14.055,15.38838,15.04455,38.40317,15.64487,9.529346,13.60141,14.49906,9.546895,12.21636,13.42467,14.09264,16.11152,15.3214,11.6574,11.47006,15.32801
0,484,8.063873,10.30967,9.18999,11.23665,10.71802,32.68585,9.430947,3.695032,8.205819,9.078706,4.167376,6.375403,7.993947,8.16835,9.817151,7.824008,5.533451,4.650738,8.245939
0,485,2.085447,3.63668,2.882951,4.191566,3.972837,26.3526,3.761354,-2.429425,2.428304,2.280035,-1.193607,0.7575257,1.96111,2.450579,3.696009,3.167928,-1.695383,-1.167771,1.094448
0,486,5.683436,7.79398,5.225008,6.882994,8.627316,29.89738,6.287592,1.735425,5.548565,4.906302,2.596328,3.421532,5.847642,6.021749,7.277745,7.448237,1.88972,2.424717,4.870145
0,487,6.712027,8.587631,5.784883,7.859321,10.36488,31.03343,7.205984,0.09347211,5.357062,4.505497,3.13571,2.487753,5.99169,6.266256,7.291843,8.237061,1.593789,2.50807,6.210277
0,488,6.07398,8.147676,5.608014,7.731157,8.573361,30.42117,8.039159,-0.6216298,4.827027,4.449649,1.624215,2.777978,4.827787,5.761522,6.590625,7.683214,1.953974,0.6900473,5.547599
0,489,0.5656127,2.332613,0.9709808,1.133186,2.747576,25.19216,2.176337,-5.499324,-1.103683,-0.5498803,-5.517894,-2.053953,-0.9605132,0.3861092,1.445064,1.501312,-2.579329,-3.433977,1.657192
0,490,-2.57791,-2.27651,-2.64815,-2.38214,-0.02674064,21.79118,-1.199735,-9.385223,-4.101198,-3.81515,-7.661358,-5.872287,-5.127432,-3.08573,-0.6338303,-2.133196,-5.949552,-7.069921,-2.470279
0,491,-0.2738944,0.7678992,0.2456118,-0.0228333,3.041999,24.34819,0.9021538,-7.00243,-0.5663383,0.1730736,-4.989356,-2.463483,-0.4948111,-0.2412525,1.464986,1.357531,-2.166821,-4.527273,-2.314746
0,492,9.882804,11.58401,10.77997,11.52763,12.92302,35.27072,11.50256,3.671926,9.902598,10.23739,4.602807,9.43304,10.57154,11.1167,11.36899,11.95622,8.501477,4.738455,8.924701
0,493,13.43705,17.07977,14.67024,15.96814,17.48508,39.93923,15.66718,7.302413,14.51494,14.6576,9.62219,13.126,13.69296,15.09699,15.00502,16.22342,12.44965,4.933738,12.42561
0,494,11.41239,16.83,14.33774,14.68249,17.47086,38.72921,13.27963,4.270869,13.40642,13.95204,7.951632,11.33761,12.23504,13.53622,13.07666,14.60682,10.10414,0.4037508,9.607096
0,495,13.33379,18.29042,15.42748,18.3967,18.69094,41.35518,16.00917,6.839219,14.93113,14.49479,10.68547,12.33253,13.77745,15.02418,14.86225,15.62848,9.927547,1.48067,11.27277
0,496,10.06646,14.67843,11.69915,14.98959,14.23679,37.68826,13.19766,2.907401,11.15014,10.90067,6.286053,8.913198,10.79172,11.3065,11.34429,12.98969,6.962032,-0.2261172,6.859891
0,497,15.66623,21.88071,18.44427,21.4586,19.73815,44.44506,19.00004,7.79243,18.04405,18.52995,11.68955,16.84385,17.35261,18.24627,16.88763,19.69978,15.41513,5.641734,14.37425
0,498,11.62906,18.49867,14.63013,17.68281,16.51007,40.65808,14.16559,4.122027,13.62815,13.58435,7.366106,12.98524,14.11591,14.96049,13.50149,16.0596,12.06525,0.802559,11.8412
0,499,13.5961,22.19078,18.42169,21.38481,19.91148,44.18964,15.4166,5.538442,16.67983,16.42192,9.842118,16.09403,18.0966,18.29061,17.0007,19.5181,16.46319,1.416497,13.96791
0,500,17.59751,27.63586,24.13146,27.3042,24.88276,49.54613,19.85026,9.470851,21.84709,21.03893,14.0942,21.6192,21.953,23.19301,19.50309,23.70184,20.58019,3.823897,16.22158
0,501,13.54015,23.57335,20.49735,23.34337,21.52793,47.0548,16.25681,5.932706,18.57086,18.23627,10.7615,17.43556,18.53834,19.19414,15.35565,19.5897,14.08808,-1.928884,11.28758
0,502,8.215731,18.51259,15.31693,17.79553,17.12506,41.9326,9.489613,0.3271216,13.53634,13.41095,5.034091,12.84415,14.67456,14.48368,11.06387,14.53943,9.852738,-5.848599,6.259066
0,503,7.935777,17.44577,14.83858,17.41887,16.28999,39.97746,8.951614,-0.5077327,12.51257,11.74675,4.422478,11.72748,13.39882,13.39621,11.33347,13.79937,8.517939,-5.165404,4.294455
0,504,0.3991538,8.414629,5.807328,7.111341,7.677145,30.94056,1.102151,-7.286331,3.50954,2.715569,-3.51437,2.466401,3.608826,4.479245,3.83136,4.989827,-1.463625,-10.96,-2.105256
0,505,-1.930532,5.974247,2.577046,3.914386,5.906309,28.34839,-2.67845,-9.117389,1.34023,0.5971716,-5.930441,1.291999,1.094667,2.974719,0.4318151,2.389338,-1.053681,-10.47977,-2.112329
0,506,-1.41756,7.55893,3.756481,5.595319,5.975162,28.92988,-2.250191,-8.862388,2.616515,2.072504,-4.501878,2.523005,3.818506,4.08568,0.9577831,3.856593,0.02777803,-8.748939,0.05599323
0,507,0.9155337,9.509237,5.479731,6.881047,7.941225,30.07557,-0.339219,-5.826803,4.646892,3.816446,-1.723034,4.700068,6.241006,6.177287,3.068324,5.757354,2.796864,-5.126958,3.218274
0,508,1.369258,9.115124,5.974899,6.940356,8.698416,31.46904,0.6393743,-7.09496,4.735943,5.063091,-2.28238,4.513538,7.265791,6.205039,2.36909,6.152208,3.853027,-4.835147,3.290699
0,509,-5.817549,1.967624,-0.8625914,0.8894852,1.216194,24.58505,-5.943069,-15.86761,-2.094851,-1.728493,-9.587789,-2.361841,-0.1357395,-1.220652,-4.528069,-1.653797,-4.032543,-12.55718,-5.287702
0,510,-0.8341225,7.380061,3.589604,6.155561,5.328037,30.12733,-0.3258814,-8.269234,2.517264,3.476331,-4.612903,1.712335,4.635505,3.333854,0.4130391,3.638239,1.840376,-7.07796,0.7463767
0,511,1.217187,9.80453,4.865872,7.79734,7.934927,30.53932,0.9239975,-5.082973,4.346177,5.07238,-2.872711,3.790121,6.770494,5.339506,2.76189,5.397898,2.825731,-4.997921,2.029939
0,512,8.988509,17.0823,12.32025,16.17724,16.09483,38.97154,8.494192,1.820708,12.11352,11.52314,6.10275,10.60217,13.51239,12.49175,10.38396,12.42151,9.235489,2.673655,7.825368
0,513,15.85572,24.16218,19.59497,21.63848,23.99192,46.10649,15.37144,8.758921,18.96837,18.39037,12.99993,16.96301,20.12471,19.68798,16.5883,21.16265,15.90133,7.66654,14.14594
0,514,8.510133,16.95631,12.10921,15.25473,16.19064,38.53451,8.036362,1.900216,11.20438,10.57126,5.29713,9.99319,13.65441,12.72664,9.400131,13.49428,10.92346,0.8053812,8.590887
0,515,-7.20574,1.932975,-3.359464,-0.9803892,0.6671946,23.70175,-7.465161,-13.31499,-4.591159,-4.455534,-11.43766,-5.55982,-1.158499,-3.31248,-6.216548,-3.223722,-5.665318,-15.43677,-7.502391
0,516,-10.84444,-1.061419,-6.138057,-4.993729,-3.010686,21.24555,-11.71518,-15.93575,-7.119388,-6.857228,-15.03544,-7.229115,-4.903385,-5.857075,-9.176083,-6.21219,-7.681118,-17.5473,-10.24331
0,517,-3.977689,5.483963,0.8851248,1.325526,3.422857,27.7101,-5.087991,-8.894828,-0.8538049,-0.451027,-8.340543,-0.9044387,1.668159,0.936627,-2.307852,1.009126,-0.3226377,-9.700308,-1.445457
0,518,-7.294527,2.743946,-2.061284,-0.2846655,-0.2446463,25.19916,-8.242806,-10.79569,-3.536804,-3.007842,-10.50275,-4.574924,-0.8422042,-2.190505,-4.928902,-1.340982,-3.557393,-12.42495,-4.608908
0,519,-7.122081,1.754886,-2.336246,-0.1282378,-0.08214548,23.39249,-7.958145,-12.49575,-3.554175,-3.155818,-10.36688,-4.398131,-1.732098,-2.225975,-5.03236,-1.968059,-4.970638,-12.92517,-4.91866
0,520,6.778326,14.68545,9.972537,12.25136,14.20597,36.07193,5.320168,2.281116,8.831684,9.108561,2.481765,7.954814,10.60282,10.58018,9.044151,10.39912,7.680912,0.857676,8.661515
0,521,4.611272,13.9381,9.108433,10.51805,12.14612,36.28364,4.368204,0.6005362,7.751365,8.456158,0.2950613,6.874747,9.927583,8.54659,6.401427,8.18566,5.545118,-3.027414,4.660679
0,522,5.045528,15.26613,10.61448,10.73085,12.74524,36.55709,5.145516,0.8456414,8.881135,9.050126,1.953063,8.145347,10.09906,9.751524,5.884814,9.660969,8.051276,-3.678365,6.201718
0,523,8.457006,18.35849,14.42759,13.65067,15.85519,39.88363,8.375432,4.051815,11.54914,10.98901,5.787977,10.20275,13.26577,12.42377,9.189148,12.95476,10.70205,0.4388441,9.492017
0,524,9.998987,19.6276,15.05275,16.11507,17.65244,40.84876,9.937637,5.313095,12.74955,12.04997,6.89695,11.58133,15.63764,13.80779,9.914509,14.14191,13.36711,2.156162,9.658984
0,525,-5.05064,5.754132,0.3316799,2.355448,1.764066,25.48002,-4.584621,-10.72357,-1.572046,-1.575407,-8.238095,-2.903634,0.5616604,-1.125254,-5.100493,0.2024402,-0.8399329,-11.87215,-5.71985
0,526,-14.58594,-4.100534,-10.23049,-9.080231,-8.480438,14.67261,-15.08306,-20.22352,-11.43563,-10.89739,-17.94853,-12.74897,-10.07707,-11.16806,-13.15883,-9.869263,-11.36285,-19.08783,-13.30622
0,527,-14.19207,-5.740773,-9.448822,-8.534996,-8.558436,14.27987,-15.12563,-19.8551,-10.21074,-9.106848,-16.30766,-12.00915,-9.685858,-10.63877,-12.1141,-9.838786,-11.61498,-16.34254,-12.44853
0,528,5.64546,15.38124,10.04941,12.79447,12.22667,35.37081,4.868675,0.9903054,10.04791,10.00551,3.93408,8.516077,10.31422,9.916576,7.559487,10.25509,8.35782,1.014928,6.405368
0,529,7.075577,16.78841,11.46138,13.89156,14.31759,37.77739,6.476885,1.200579,10.61357,9.63541,5.306837,8.443832,11.27657,10.27719,7.509691,10.36079,7.552464,1.357525,6.122145
0,530,4.663402,15.09601,10.9714,11.86511,11.7377,36.87505,3.735796,-1.125876,9.567956,8.568898,3.746201,7.657489,9.838973,9.252455,6.262308,10.06451,7.27552,-0.05100641,4.875932
0,531,4.318996,14.7665,10.32076,11.76023,11.79993,37.23181,3.096429,-2.556601,8.811192,7.94239,2.528204,7.353636,9.812518,9.454997,6.312313,10.41102,7.256233,-0.9796754,5.903153
0,532,-2.583731,7.181991,3.19259,3.967797,4.467845,30.1581,-3.222227,-9.854503,0.8449386,-0.04642664,-5.732223,0.01135296,2.092468,2.047395,-2.142347,2.780987,-0.4051458,-8.040083,-1.198447
0,533,-0.9757265,7.748133,5.006096,5.51402,6.949435,30.2876,-1.431094,-9.266009,2.872076,2.443012,-4.28108,2.221025,5.414125,3.944449,-1.368834,4.647094,1.907298,-7.537545,-1.98869
0,534,-6.31927,2.892856,-1.403785,0.4974516,0.3253582,24.97923,-7.139506,-13.49412,-2.766981,-2.637194,-9.753896,-3.109743,0.1540644,-1.555128,-6.624246,-1.359842,-3.067355,-9.747092,-3.974487
0,535,-11.64574,-2.476628,-7.284235,-4.975129,-4.909075,20.89718,-13.12845,-18.24501,-7.668209,-7.083848,-15.61553,-7.454224,-6.23608,-6.265155,-12.06246,-6.906362,-9.178499,-13.38762,-7.83457
0,536,-1.716813,7.47892,3.99506,5.498432,5.913514,30.80447,-2.46084,-9.842365,1.819929,3.073678,-5.966726,0.9621379,3.74251,2.780094,-3.34386,2.512506,-0.2132148,-5.650379,0.7749764
0,537,-1.3171,8.264334,4.26011,6.56858,6.690186,30.23396,-2.386828,-9.653396,1.104775,1.416329,-6.498905,0.4611633,2.477558,3.054525,-2.617683,3.000103,-1.588299,-6.655592,0.8306631
0,538,-16.48849,-6.013126,-10.70922,-8.339968,-8.952909,14.51284,-18.08825,-25.36352,-14.09885,-13.52483,-21.61487,-14.93355,-12.31393,-12.18497,-17.85816,-11.44913,-15.66027,-19.50198,-13.22685
0,539,-19.05361,-9.134659,-13.69075,-11.03618,-12.85538,11.65269,-20.16791,-28.23832,-16.75428,-15.82414,-24.47861,-16.76132,-13.27691,-14.56542,-21.02115,-13.77743,-16.45774,-20.22965,-14.48332
0,540,-8.609497,1.403239,-3.413924,-0.1920167,-1.906342,22.70559,-9.552235,-16.83701,-5.535055,-5.668136,-12.60249,-5.767093,-2.827504,-3.3522,-9.684411,-2.573099,-6.870522,-12.17399,-4.633487
0,541,-6.220222,5.56638,-0.4010642,2.673726,1.338633,26.35307,-6.848205,-14.60308,-1.512584,-1.394651,-8.51321,-2.747008,0.2782676,-0.566351,-7.12788,0.6511918,-3.39892,-11.39675,-2.878508
0,542,-3.418766,9.398796,3.052805,5.731128,4.550529,29.97555,-4.480523,-10.54136,2.092311,1.404255,-4.935559,1.393571,2.71976,2.9174,-3.278826,2.926807,0.6526831,-9.16737,0.2283653
0,543,-2.271272,9.905993,5.554972,6.835032,5.479476,32.77002,-2.89658,-8.679611,2.655146,1.338428,-3.656339,1.36485,4.097101,3.692584,-1.948034,4.388129,0.8210522,-8.608492,0.6026062
0,544,-3.307815,8.664892,3.441743,4.308998,4.773743,29.94774,-4.352849,-10.04926,0.8377743,-0.17011,-5.402061,-0.2015893,3.485365,1.944796,-3.929588,2.03348,-2.011195,-9.449368,-0.3394988
0,545,-0.6022345,10.47807,3.36736,8.028883,7.888136,32.39376,-1.459618,-7.435888,2.0252,1.276983,-4.178507,0.5641549,5.260813,3.600446,-2.213042,3.409329,-1.344441,-7.441463,1.16905
0,546,2.298962,13.31714,6.558554,10.45873,10.3342,35.06926,1.460003,-4.654692,4.830788,3.408153,-1.166103,3.757732,6.080867,7.038003,0.6379304,7.542597,2.079911,-4.543819,5.21625
0,547,2.350197,13.83054,6.752977,10.36424,10.17357,35.11437,1.905136,-3.36333,6.200798,5.232322,-0.8455482,6.106833,7.244831,8.372941,0.7528468,8.612311,3.794834,-4.889275,5.712944
0,548,-2.628048,7.471715,1.847389,5.229773,4.988438,30.66999,-3.533173,-8.075759,0.4362018,-0.3961558,-6.91471,0.3191777,1.386764,2.903644,-3.213685,3.167391,-1.067457,-8.401187,-0.1426264
0,549,-5.096344,5.410552,-1.059466,2.188321,2.582629,27.35101,-6.138871,-10.91435,-2.079487,-3.529643,-8.779293,-2.19298,-2.091635,-0.1557002,-7.590594,-0.7274348,-3.433834,-9.938432,-3.000558
0,550,-6.399132,3.43429,-1.618704,0.1623328,1.186415,25.00005,-7.472357,-11.34416,-3.69976,-3.645236,-10.47323,-4.454492,-2.729587,-1.793139,-9.751663,-1.238923,-4.136445,-9.808401,-3.63432
0,551,-2.605227,6.285182,0.9681269,4.016759,4.136222,28.80731,-3.309576,-8.664638,-0.9588218,-1.250783,-7.986349,-1.16277,0.7801705,1.887558,-5.592686,3.069661,-2.617161,-6.29073,0.3383071
0,552,-0.1965276,9.285712,3.655375,6.687678,6.226968,30.51454,-0.3979229,-7.488045,1.391923,0.01922457,-4.851126,1.452617,3.779454,4.010694,-4.143174,4.797529,0.4269613,-4.542181,2.163088
0,553,-8.487402,1.780614,-4.070887,-0.9667345,-1.088825,23.25933,-9.998885,-15.78829,-5.883276,-6.742911,-11.99143,-6.785843,-2.55112,-4.127728,-10.68181,-3.590354,-7.050537,-11.34451,-5.956267
0,554,-21.12792,-12.00009,-17.31727,-14.20479,-13.2626,10.46044,-23.59281,-29.55872,-19.06109,-18.87992,-25.75159,-20.06375,-16.73199,-17.01249,-23.78235,-16.85749,-20.56762,-21.95827,-17.46322
0,555,-25.70949,-15.91131,-21.3667,-17.8804,-18.84871,4.398772,-28.59961,-32.81326,-23.24648,-22.22089,-29.98056,-24.13589,-21.1201,-21.06156,-28.55802,-20.15415,-22.28846,-23.2183,-19.5054
0,556,-27.02594,-18.67883,-23.5304,-21.37733,-21.25084,1.153893,-30.01985,-32.85537,-24.62836,-23.40069,-31.90681,-24.67105,-23.57824,-22.71901,-30.06547,-22.03307,-24.01808,-22.33114,-21.91813
0,557,-19.06271,-11.99353,-18.12475,-14.69495,-13.57779,7.799546,-23.22485,-25.83185,-17.68797,-17.60787,-23.10756,-17.99303,-16.96762,-15.80334,-22.60344,-15.95123,-17.31984,-11.81294,-12.84092
0,558,-18.48399,-10.4211,-16.74929,-14.32274,-13.14521,7.912783,-22.38803,-25.7077,-16.69616,-16.25123,-22.92284,-16.15887,-14.20413,-14.41704,-22.5444,-14.01135,-16.00709,-11.56324,-11.46119
0,559,-20.51627,-12.69129,-17.47923,-15.4233,-14.99948,6.50671,-24.63146,-27.37667,-18.2562,-16.7255,-24.33467,-18.50324,-15.67793,-16.15599,-24.22397,-15.65523,-17.64144,-12.72755,-11.63539
0,560,-20.47729,-13.52786,-18.12286,-16.77115,-15.29939,5.992417,-24.51717,-27.90389,-18.38454,-16.6354,-23.62065,-18.89948,-15.94211,-16.67797,-23.76839,-16.88346,-18.69257,-12.84214,-10.17915
0,561,-17.55545,-10.80863,-14.17684,-12.49251,-12.72981,9.339057,-21.07134,-24.08221,-14.76633,-12.36339,-20.00838,-15.79923,-13.33115,-13.46194,-20.23915,-13.71667,-15.81387,-10.1546,-6.567459
0,562,-8.117229,-0.337901,-4.725697,-2.679617,-2.592235,19.94241,-11.69037,-14.77841,-5.369623,-3.444707,-9.412263,-8.156311,-4.020586,-4.896563,-11.34698,-4.036187,-7.407329,-1.188158,1.59788
0,563,-5.357652,2.167758,-2.998137,-1.437558,0.1007834,22.37004,-9.716042,-12.18361,-2.548939,-1.471326,-6.99876,-3.889505,-1.689004,-1.313686,-9.130441,-0.9963626,-4.492679,2.811192,5.255962
0,564,-10.19821,-3.558185,-7.410201,-5.832689,-4.516135,15.58318,-13.9389,-17.25244,-7.70421,-5.538973,-12.63105,-8.852484,-5.763524,-5.961463,-15.26067,-5.35183,-8.246247,-2.989676,0.1926537
0,565,-6.504344,0.9900221,-3.261185,-1.312896,-0.740927,20.67279,-9.624676,-13.84076,-4.346953,-3.138359,-9.379653,-5.324134,-2.050933,-2.466331,-11.48719,-1.954283,-5.47724,-1.244048,2.388827
0,566,-2.314594,7.081196,1.608229,3.879144,4.277874,26.47028,-5.886637,-9.349427,0.8923309,1.458758,-4.260856,0.07145028,3.15705,2.871275,-6.367018,3.320684,0.4409078,1.908192,7.297319
0,567,2.011798,10.74343,5.653614,7.609985,9.076165,30.7775,-0.5435742,-6.866368,5.639678,6.474461,-0.1582175,5.191154,7.54582,7.379767,-2.287836,7.353163,4.629516,3.117168,10.27753
0,568,10.99013,19.87615,14.61145,15.92963,17.90217,39.5729,8.157246,2.6414,13.50292,14.18079,8.768102,11.79525,16.06761,14.72541,7.273023,15.56119,12.04716,12.73899,18.2845
0,569,8.002044,17.44486,12.22073,13.61768,15.23875,36.72635,5.081619,0.3803707,11.49908,12.74831,6.536273,9.868314,15.29249,12.43446,5.174614,12.55571,9.480786,9.22471,16.19338
0,570,5.690804,15.64499,8.573203,12.50143,13.34484,35.37365,3.320364,-2.71438,9.071289,10.09906,3.64448,7.702753,10.58131,10.27961,2.015272,9.56538,6.944253,5.047428,13.98555
0,571,4.270965,13.4288,6.063715,10.44236,12.15487,32.67114,1.746415,-5.179459,6.662457,7.612939,1.692237,5.164255,9.466246,8.59858,-0.06988484,8.821486,5.323238,3.347614,12.47265
0,572,6.629956,15.95919,9.290473,13.66795,14.51954,35.27748,4.596674,-2.238977,10.04023,11.08226,4.192719,8.801776,13.53612,11.85643,1.443575,12.93878,8.228259,5.68773,12.91813
0,573,-3.201784,6.331791,-0.6132327,3.799204,4.564674,25.30364,-6.170353,-12.46214,-0.5852792,-0.24234,-6.19341,-1.568092,2.513993,1.713328,-7.605435,2.401441,-2.606318,-2.826683,3.816546
0,574,-10.20442,-0.585304,-6.402419,-2.695265,-2.304255,17.50556,-13.65601,-19.52897,-8.09342,-6.392955,-13.84721,-9.977763,-3.937173,-6.023799,-14.24499,-4.659124,-9.708903,-8.282878,-2.834673
0,575,-7.919273,1.98793,-3.026095,-1.06931,-0.7803822,20.19687,-11.0556,-16.18902,-4.475421,-1.754092,-10.59029,-6.265484,-0.93212,-3.069676,-11.45412,-1.658153,-6.259281,-4.993906,1.468957
0,576,-5.653112,3.615328,-2.198013,-0.1808774,0.2582705,21.68557,-7.297781,-14.34053,-3.440355,-1.191213,-9.159311,-5.179301,-0.5850213,-2.340789,-10.64148,-0.6216941,-5.491682,-3.785479,1.849112
0,577,-5.532169,3.012955,-2.983819,-0.2628439,1.038954,20.4535,-7.480263,-15.08473,-3.688656,-2.509104,-9.275848,-4.620863,-0.6992133,-2.47547,-11.80168,-2.422372,-5.799144,-4.111597,-0.06427035
0,578,3.462192,12.64386,6.074349,8.902517,8.932324,30.87483,2.987767,-5.235164,5.61595,6.470366,-0.10936,4.502916,7.335265,5.907766,-2.427805,6.221683,3.087487,3.649496,7.19814
0,579,8.453928,18.32153,12.2088,15.00273,15.79711,36.73668,7.289829,0.497624,10.62996,11.6801,4.864907,8.763111,12.5623,11.03516,3.219143,10.85979,7.153885,6.701941,11.71337
0,580,4.145306,15.17789,7.666831,11.27228,11.22423,32.0677,3.270286,-4.322183,6.282665,6.997665,1.122617,4.306683,8.43556,6.897751,-2.154601,7.309859,3.633689,2.256958,8.731095
0,581,5.662744,16.741,9.524632,13.76813,12.75446,34.85268,4.825452,-1.931904,7.7234,8.07077,2.075558,6.09413,8.581951,9.055919,0.5004494,9.58376,5.659115,2.940407,10.44254
0,582,4.855883,16.24493,8.623912,13.81956,13.14076,33.38614,3.395747,-1.650616,6.920343,7.426929,1.004814,5.065024,7.921059,8.359118,-0.685212,8.484565,4.219867,1.71802,8.47693
0,583,6.590409,18.6234,10.61045,15.42557,15.90569,34.68307,4.535643,-1.301826,8.513457,8.173482,2.327763,7.77086,9.830385,10.75394,0.7880525,9.97289,8.057885,2.258274,10.41327
0,584,0.6113898,12.8507,3.271987,9.031272,9.228366,28.69183,-1.260437,-5.48462,3.295916,2.496184,-2.152408,2.284547,4.163768,5.101132,-4.43927,4.634933,1.621796,-3.578938,4.764452
0,585,-10.28856,1.263876,-7.202719,-1.984161,-2.676071,18.25763,-11.14386,-16.84383,-7.777761,-7.367956,-13.55839,-9.200769,-7.144321,-6.339414,-15.55826,-6.472506,-10.77001,-14.28103,-5.367484
0,586,-19.7741,-8.819422,-16.54727,-11.30153,-12.90763,7.476284,-19.89919,-27.28162,-17.98287,-18.63708,-23.70717,-18.53769,-16.37366,-16.27614,-26.04366,-16.87217,-21.01869,-24.22976,-17.00507
0,587,-18.78709,-8.32874,-16.58447,-11.62811,-11.943,7.735585,-19.34648,-26.47381,-18.20689,-19.75974,-22.52541,-19.40555,-15.55675,-16.70577,-24.72462,-17.35592,-22.07573,-23.08749,-16.98461
0,588,-6.456108,4.096601,-3.990613,-1.058434,0.1791275,20.09953,-7.049108,-14.14592,-6.038126,-6.213684,-10.52872,-7.484301,-3.354316,-4.768438,-12.99549,-4.848323,-8.664511,-9.572583,-2.45406
0,589,-12.98548,-2.670168,-10.26116,-7.360403,-6.767987,12.11233,-14.40865,-20.39241,-12.76391,-12.68771,-17.71647,-13.3257,-9.102517,-10.6286,-18.83839,-10.55631,-13.64087,-14.01762,-7.53059
0,590,-8.990662,0.8969287,-6.887615,-2.640121,-3.729183,15.29209,-10.55592,-15.89275,-9.047239,-8.917534,-13.91968,-9.696557,-5.598511,-7.004198,-14.64419,-6.507034,-9.798352,-7.809084,-3.706595
0,591,-3.605442,5.883214,-2.318964,2.288921,1.527421,21.59609,-6.220717,-9.870508,-2.919473,-2.296774,-7.533499,-3.412009,-0.2663993,-0.5010415,-8.620233,-0.3980659,-3.91741,-0.1350175,6.045513
0,592,-10.56457,-1.771106,-8.59122,-4.774665,-5.588315,14.03863,-13.2446,-17.35085,-10.05881,-9.254662,-14.97492,-10.027,-6.07389,-7.471817,-15.58787,-8.004922,-11.2357,-6.610006,-1.054022
0,593,-6.131369,3.467621,-4.879091,-0.3635944,-0.7838129,18.43872,-8.6321,-13.06865,-5.461207,-4.596336,-10.64959,-5.493769,-1.143055,-3.195877,-10.65537,-3.418436,-4.855276,-3.281908,2.049028
0,594,-1.678612,8.11551,-0.3367437,3.473354,4.366017,23.90177,-4.494478,-7.797976,-0.8839911,-0.5063834,-5.90468,-1.026403,2.27725,1.440573,-6.630577,0.9658195,-0.8558201,0.6509124,6.392207
0,595,1.538332,12.03488,2.84601,5.871219,7.628053,26.76643,-0.6713006,-4.95235,1.916054,2.118512,-2.523706,1.131685,5.240757,3.612036,-3.714546,3.515417,1.551855,2.266029,8.406724
0,596,1.338157,13.16464,3.841193,8.002878,8.042907,28.56273,-0.6023969,-4.350458,2.413443,3.176982,-2.820693,1.098348,5.914836,3.831104,-3.073031,3.945019,2.368506,1.033657,7.437117
0,597,0.5623163,12.46823,3.869362,9.152609,7.216411,26.84853,-0.8197798,-5.323239,2.538753,4.097985,-3.082862,0.9413524,6.065279,3.613748,-3.88836,4.125636,3.026529,-0.1299938,6.217757
0,598,1.615586,14.43736,4.894183,10.77761,8.974993,28.83278,-0.3493209,-4.503416,3.973709,5.332357,-2.533025,2.896302,6.619102,5.669165,-1.944197,6.239769,3.980302,0.1762103,7.856197
0,599,-3.646446,9.402953,0.3634943,5.822707,3.650757,24.4544,-6.110049,-10.7234,-1.377417,-0.9975457,-7.175138,-2.224763,1.67038,0.9562068,-6.185744,1.584861,0.4657744,-4.814436,4.203276
0,600,-0.3134431,12.76821,3.611674,8.750116,7.763082,28.18826,-2.981618,-7.771773,2.832055,3.078269,-3.231874,2.410697,5.186521,5.354188,-3.671732,5.714149,5.020253,-2.074797,8.064177
0,601,1.876131,16.60973,7.90172,13.59292,11.03611,32.66583,-0.5797167,-5.23972,6.283367,5.61308,0.06171946,5.816722,8.390451,8.563533,-1.161442,7.741045,6.529602,-2.336846,9.535748
0,602,6.804715,22.36105,11.56383,18.54087,16.45275,37.77798,5.235763,-1.24055,11.16498,10.1617,4.554897,10.88532,15.33077,13.54757,4.177979,13.40555,11.31636,-0.996492,12.28728
0,603,5.454235,21.4547,10.36668,17.04402,16.01866,36.10909,3.013248,-3.703484,9.996468,9.146264,3.682972,8.851947,13.89162,12.34701,3.348869,13.31454,9.562669,-2.294161,11.21036
0,604,3.335791,19.43535,10.19627,15.26495,13.73064,33.68992,0.7466751,-5.63887,7.946891,7.586514,1.568991,7.097052,11.80264,10.10112,1.407493,9.85023,9.134941,-3.453176,10.39632
0,605,6.700001,23.12956,12.92243,18.77267,16.46445,37.93122,4.490681,-4.21957,11.06154,10.74394,3.960531,11.19562,15.751,13.80693,5.356458,13.64514,14.35485,-0.2902755,15.04804
0,606,2.793822,18.0471,7.799654,14.46694,12.59435,33.86071,0.1338421,-8.195684,6.543054,6.536818,-0.8393062,6.993583,11.06497,10.16964,1.266152,10.12271,9.669282,-3.395301,12.24614
0,607,0.8742763,16.5359,5.438237,12.00309,10.83063,31.09297,-2.808136,-8.100643,4.837685,4.486607,-1.734285,4.965831,9.510754,8.158541,-1.841933,7.949541,7.415872,-2.684304,10.69482
0,608,0.9811636,17.72976,6.875083,12.4595,11.3816,32.3287,-2.658826,-7.410382,6.115803,6.576489,-0.76825,5.913507,10.91772,8.763175,-2.35017,8.243236,8.213108,-2.317293,11.82647
0,609,-1.082752,15.27632,4.861948,10.36405,9.126081,30.21917,-4.954243,-10.253,3.691571,4.322727,-4.048608,4.162537,7.973475,6.658112,-5.206151,5.955272,6.864827,-2.794996,9.462647
0,610,-2.090241,14.09655,2.856763,9.850902,7.603097,27.7965,-5.608932,-13.09022,2.033011,2.951317,-6.006275,2.467167,7.128198,4.849221,-5.834789,4.847671,6.637383,-3.667687,6.888065
0,611,1.963506,18.48577,7.468021,14.211,11.03533,33.29416,-1.72492,-6.300405,7.516371,7.849861,0.5715343,7.562595,11.98627,9.929421,-0.7727271,9.883759,11.17779,1.475786,13.03637
0,612,-8.374766,7.894547,-3.573934,3.871891,0.4613132,23.46168,-12.3188,-16.09534,-3.31658,-3.149623,-9.450058,-4.047318,2.564804,-1.133141,-11.76351,-0.8433046,-0.4963039,-7.16466,2.33729
0,613,-21.51707,-5.861177,-16.83125,-11.41127,-13.63547,8.308093,-26.46391,-30.13627,-16.93937,-16.29584,-22.95971,-17.02311,-10.36054,-14.1409,-24.85066,-13.18795,-13.31999,-16.95532,-7.817467
0,614,-22.98487,-9.508052,-18.02121,-13.75062,-15.31926,5.379761,-27.6926,-31.89513,-19.33835,-17.93046,-25.49361,-19.56972,-13.26,-16.25761,-26.60406,-15.08883,-15.92785,-18.33537,-9.911827
0,615,-26.68436,-13.44612,-23.36636,-18.01938,-19.63883,0.9273918,-31.21114,-35.98403,-23.56007,-21.32733,-29.85489,-23.86984,-18.51349,-21.16122,-31.01416,-21.00946,-20.7246,-20.7432,-13.12311
0,616,-24.37828,-10.63178,-19.51069,-14.97859,-18.40383,4.25744,-28.81623,-32.37119,-20.41077,-17.67808,-26.94984,-20.64569,-15.50171,-17.9871,-27.67838,-16.91694,-15.99409,-16.52908,-8.734257
0,617,-4.668015,10.01196,-0.2736834,5.649601,2.3624,24.47805,-8.661846,-12.19373,-0.629493,1.162064,-6.892145,-0.730496,4.380855,2.046624,-8.18445,2.581033,4.187704,-0.3078378,9.923141
0,618,-17.884,-3.625309,-13.13813,-6.248603,-10.26252,11.15103,-21.99461,-24.85743,-13.47442,-11.32344,-20.09192,-14.00036,-8.321908,-11.31815,-21.07683,-11.67128,-10.56745,-13.75423,-5.235821
0,619,-19.9964,-5.243601,-16.05104,-8.982612,-12.10283,9.006207,-24.0966,-26.39408,-14.85276,-12.5184,-21.58664,-15.24735,-8.815639,-12.95293,-24.38871,-13.10669,-11.40772,-15.49891,-7.512948
0,620,-8.914236,6.636098,-5.008652,2.619554,-0.9398453,21.04305,-12.37985,-14.12586,-3.925713,-2.019923,-10.85271,-4.165287,1.833839,-1.854488,-13.93226,-2.072136,-1.375611,-6.042824,2.949677
0,621,-18.75537,-4.15462,-13.85203,-6.126345,-10.82882,11.25579,-21.9066,-23.14487,-13.0679,-11.44319,-19.5119,-13.77887,-7.489932,-11.31304,-22.74233,-11.64462,-10.72459,-16.54831,-8.15417
0,622,-15.04649,1.136757,-9.399946,-3.483827,-6.976351,15.15076,-18.10741,-18.96003,-8.22056,-6.823296,-15.11047,-8.50178,-3.248688,-7.180972,-19.36863,-7.48975,-5.182127,-13.05684,-5.115446
0,623,-10.84509,5.241909,-6.616734,0.633177,-2.30366,19.52055,-13.54443,-14.5092,-4.557416,-3.406089,-10.97198,-4.985034,0.4966195,-3.104106,-16.16589,-3.564142,-1.597727,-10.58897,-0.6841663
0,624,0.2077824,17.46103,4.957687,12.55765,9.173502,31.99943,-2.283934,-3.215893,7.187733,7.390252,0.3069532,7.756454,12.66863,9.334576,-4.254254,8.671061,11.44383,-1.764333,10.64426
0,625,4.832144,22.84106,10.35843,17.16306,13.73937,35.89169,2.082607,2.948507,12.15475,12.59504,4.174403,13.67258,17.84348,14.47239,1.088262,13.40646,16.00381,2.9755,15.03825
0,626,-2.002782,15.31312,1.92494,10.11626,7.035689,28.56038,-5.376747,-5.086601,4.558696,3.817815,-2.537953,6.133387,9.776365,7.346905,-6.073889,5.886038,7.942947,-3.37682,8.198739
0,627,-1.838091,14.16912,2.421191,10.03733,6.379809,27.79526,-3.970525,-5.652713,4.644698,3.957379,-1.992593,6.171098,9.737267,7.152632,-5.658345,5.449147,6.955118,-5.015893,8.000812
0,628,3.117691,18.72839,6.689689,15.29788,10.1242,32.20026,1.556201,-0.2561787,8.573959,7.993696,2.636083,9.251623,14.89034,10.87142,-0.8162236,10.66605,11.07387,1.148216,12.03449
0,629,-3.534323,12.18462,-0.3075052,7.27103,3.934852,24.97515,-6.315256,-5.97222,1.434973,1.301096,-3.770796,1.130318,6.190828,3.297565,-7.130284,2.954657,3.672269,-3.688081,6.527982
0,630,-0.2124633,16.54445,3.121995,13.03086,8.564332,28.34415,-3.004653,-2.309042,5.649026,6.643067,-0.9571167,5.707645,10.89871,7.781343,-4.583882,6.692643,8.131284,-1.640032,10.06866
0,631,-6.066267,11.59439,-0.9835784,7.281411,2.743419,23.30503,-8.089501,-8.197246,-0.1947798,0.8655307,-7.035968,-0.2936606,5.241559,1.986035,-11.3428,1.75295,2.936796,-8.67296,3.745681
0,632,-4.566633,13.70828,1.606256,8.775455,4.464316,26.13039,-7.027233,-5.746178,1.664933,2.675298,-5.195776,1.007809,6.757799,3.671642,-9.286286,4.376346,4.895916,-6.318521,5.018422
0,633,-8.039066,8.63255,-1.915628,4.288834,0.8156775,22.27028,-9.43885,-10.40648,-2.281225,-1.117574,-9.800676,-1.841119,4.24686,0.1029846,-13.5753,-0.136541,1.537218,-11.65318,0.2921643
0,634,-11.64185,4.119495,-6.940334,-0.4663741,-3.461544,16.84118,-12.62691,-14.58473,-7.139487,-6.11299,-14.62019,-6.541286,-0.8805932,-4.704773,-17.85203,-4.403541,-1.901907,-14.94591,-5.299466
0,635,-16.62218,-0.4057287,-12.0228,-5.492078,-8.326865,11.01313,-18.26206,-17.22512,-11.58704,-10.34956,-18.59311,-12.01191,-5.449874,-9.916717,-23.10555,-8.782806,-7.74208,-17.95383,-11.33811
0,636,-16.22424,-1.425872,-13.44863,-5.855214,-8.977533,10.36247,-18.77653,-16.97816,-11.82827,-10.30913,-18.41348,-11.85321,-5.2425,-9.803201,-22.3675,-9.378571,-9.272831,-14.18488,-8.177627
0,637,-16.13872,-2.757382,-15.57245,-6.871741,-9.313973,8.334106,-18.70419,-17.28671,-13.0166,-11.03268,-18.57009,-13.78134,-6.140119,-11.22798,-23.07349,-10.65423,-10.19796,-13.07458,-8.160476
0,638,-15.34474,-1.629712,-13.50946,-6.0947,-9.25185,8.96134,-18.30206,-16.12609,-11.90891,-10.13397,-16.8336,-12.8953,-5.339582,-10.73124,-22.20982,-10.20824,-7.858606,-9.637958,-6.663152
0,639,-17.57132,-3.966753,-14.64643,-8.681739,-10.88985,6.479167,-20.0043,-20.41113,-13.27681,-10.87836,-19.05869,-14.35642,-7.102071,-12.7282,-24.66313,-11.93067,-10.36264,-13.52068,-10.55378
0,640,-15.74719,-3.246494,-13.3701,-6.649412,-9.168436,8.502501,-19.58685,-18.46985,-11.73035,-10.08128,-17.24153,-12.34721,-6.271798,-10.65122,-22.06056,-10.77679,-8.863647,-8.857659,-7.708766
0,641,-14.99725,-3.756891,-13.13995,-5.413521,-8.04201,8.71056,-18.57007,-18.16846,-10.62332,-9.191322,-15.34406,-11.19828,-5.032408,-9.538805,-21.82439,-10.88761,-6.809293,-9.158992,-6.577441
0,642,-19.99739,-7.680826,-17.34837,-10.98225,-12.20044,3.704273,-23.77614,-22.92493,-15.12076,-14.24171,-19.66422,-15.33822,-8.38961,-13.39661,-26.37414,-14.30319,-10.95338,-16.35263,-10.77503
0,643,-23.81768,-10.61007,-20.02457,-13.80202,-16.53663,0.6325266,-26.73869,-26.59912,-18.60207,-16.62582,-24.303,-19.03528,-10.93014,-17.32138,-29.60541,-17.22,-14.40599,-20.47908,-15.63965
