type,latency,P7,P4,Cz,Pz,P3,P8,O1,O2,FC6,F8,C4,F4,AF4,Fz,C3,F3,AF3,FC5,F7
0,1,-3.53249,-63.31014,-5.473574,-7.616866,-4.900671,-227.8655,-15.17854,-22.79482,251.9506,88.3311,-8.73796,-85.5405,-29.53653,-6.763099,-21.02011,-16.86323,-9.68475,-24.05604,-14.48599
0,2,-5.416218,-62.29062,-6.746794,-4.584276,-5.028127,-228.5291,-19.62547,-24.87064,246.7838,84.74763,-8.2536,-89.08121,-31.8073,-7.786812,-21.1106,-17.22173,-10.05851,-25.92104,-15.32922
0,3,-2.299587,-57.77787,-4.001041,-2.412697,-2.147381,-221.1669,-13.1722,-18.34099,251.5659,89.70879,-4.170227,-81.35676,-27.58869,-7.103038,-19.19498,-18.62359,-10.41701,-20.2264,-12.85338
0,4,-6.650045,-61.97783,-6.640745,-8.451984,-6.541256,-223.4073,-15.11938,-22.39294,247.2252,85.84591,-7.872642,-83.46595,-32.02187,-15.15456,-23.54045,-23.42149,-17.01094,-24.20251,-17.74347
0,5,-16.39386,-70.46106,-15.17827,-14.89252,-14.89291,-232.4419,-26.73496,-32.7788,234.3472,74.49825,-18.19445,-96.28484,-41.68047,-21.10132,-31.16875,-28.47003,-22.19117,-34.89786,-25.80005
0,6,-3.925286,-59.88665,-5.070838,-6.985553,-4.686163,-218.1672,-12.24426,-20.35471,245.9599,86.59354,-7.233881,-81.33543,-29.72305,-12.26844,-21.94158,-19.71782,-13.15744,-23.10532,-15.54688
0,7,-6.438154,-62.08231,-7.738666,-7.460623,-6.191581,-220.2991,-17.17052,-25.13532,241.6728,82.66417,-10.39873,-87.0058,-33.63064,-14.35856,-21.80427,-19.24585,-14.69023,-26.45781,-17.67717
0,8,-21.43804,-73.94023,-20.67429,-15.43104,-18.6652,-234.9341,-35.33649,-40.13919,223.9209,66.6905,-24.18889,-105.5481,-46.39307,-19.00958,-34.07913,-28.7947,-20.68665,-41.33937,-28.97848
0,9,-14.19206,-67.17355,-14.87884,-10.1654,-12.72401,-225.7371,-25.42431,-32.17,230.8356,74.24908,-17.25755,-95.51432,-38.13654,-11.83948,-30.31177,-25.45659,-14.32469,-33.85885,-22.72219
0,10,-10.71283,-63.20727,-10.85004,-4.171787,-7.949231,-222.9931,-25.0554,-30.56198,231.856,75.88644,-14.34974,-95.95254,-36.062,-7.345566,-23.66818,-17.95125,-9.084824,-32.65894,-19.04264
0,11,-10.32606,-63.59142,-12.30622,-4.105031,-8.485949,-221.7742,-25.1346,-31.5414,231.5644,75.39569,-15.24021,-96.97825,-36.26847,-5.549472,-25.16901,-20.67351,-7.774583,-32.39202,-19.20562
0,12,-9.208878,-61.91278,-10.67054,-5.515397,-8.042292,-217.9087,-20.15271,-27.0763,234.217,78.74963,-13.0739,-89.20259,-33.17813,-7.294919,-25.76268,-21.32962,-11.27247,-27.78572,-18.03345
0,13,-20.4944,-71.2956,-19.0463,-13.99987,-17.29239,-229.1952,-33.35142,-38.12177,221.1118,66.90109,-22.5849,-101.7574,-43.95068,-16.31125,-32.49986,-27.20849,-20.13697,-38.46792,-27.15257
0,14,-22.83117,-74.45032,-21.78847,-17.02195,-19.71665,-231.3919,-32.89866,-40.11836,216.7115,64.14716,-26.69822,-102.1663,-44.82354,-17.35233,-36.40804,-30.3786,-21.12539,-40.83985,-29.33419
0,15,-14.18412,-65.59885,-13.66042,-9.370442,-10.59507,-222.3537,-23.14215,-30.27462,225.1429,72.58395,-17.67173,-93.00333,-37.27912,-11.43104,-26.10174,-21.62529,-16.50917,-31.06626,-21.14672
0,16,-7.028444,-57.60059,-6.511731,0.8477411,-2.433027,-215.1594,-20.23722,-24.97885,229.7053,77.67043,-11.0715,-90.94033,-31.42262,-0.760936,-16.1487,-10.85711,-6.023889,-26.64895,-13.74972
0,17,-11.92811,-61.44144,-10.509,-3.815406,-6.928764,-218.3365,-21.90191,-27.58389,225.1193,74.11745,-15.09584,-92.27008,-33.96129,-4.636995,-21.98448,-16.6266,-9.942603,-30.4224,-17.97746
0,18,-25.85727,-76.61501,-24.97892,-17.39304,-20.73757,-233.8202,-36.81734,-44.42667,208.9016,58.59888,-30.33863,-107.9845,-48.57689,-18.85809,-35.48578,-28.93366,-21.92221,-44.83399,-31.29827
0,19,-26.16471,-78.97356,-26.67745,-16.32998,-21.91206,-238.9492,-41.78199,-47.51123,206.011,55.94393,-33.60796,-113.0075,-48.9638,-14.12677,-37.19934,-28.72821,-15.34294,-49.33693,-31.65702
0,20,-21.37119,-73.05738,-21.11849,-12.71649,-16.32311,-231.9503,-30.18119,-39.81682,211.7424,62.62268,-26.53013,-102.1684,-41.81847,-10.17134,-33.42745,-28.09705,-13.98371,-41.41614,-26.89836
0,21,-21.54844,-71.3626,-18.95263,-11.37895,-15.63186,-230.5195,-31.75433,-39.36341,210.8898,62.26463,-24.94131,-102.4257,-42.52547,-11.04197,-31.80914,-25.33642,-16.06566,-40.21197,-26.22931
0,22,-21.81795,-71.1978,-19.25891,-10.45816,-15.4935,-229.823,-32.95398,-40.0321,210.9502,62.16338,-25.64243,-103.6172,-42.69502,-9.470708,-31.09715,-25.15093,-15.31309,-40.40056,-26.20564
0,23,-12.75,-62.33026,-10.17305,-4.0618,-7.264374,-219.3986,-20.77241,-28.79484,220.153,71.8362,-16.37158,-90.79076,-33.27024,-3.471091,-24.08196,-19.02169,-10.53249,-29.97242,-18.17125
0,24,-18.69659,-68.26104,-15.18108,-8.207835,-13.00781,-227.2145,-32.0296,-36.34813,210.0963,62.47427,-23.14971,-102.9276,-41.44196,-7.631456,-28.05764,-22.25791,-12.3858,-38.64278,-23.67395
0,25,-17.58585,-66.61488,-15.8561,-5.604211,-11.9394,-225.7729,-31.51524,-34.91125,208.924,62.37599,-22.21119,-102.7912,-39.88286,-3.756986,-28.02304,-21.63049,-8.541994,-38.04062,-22.12612
0,26,-16.77875,-66.67646,-15.70732,-7.24829,-11.54749,-224.0731,-29.00503,-33.71087,209.5777,63.36296,-22.02969,-99.72021,-39.2935,-6.023179,-26.86576,-22.51315,-11.05078,-35.89046,-21.97248
0,27,-13.67501,-63.504,-13.83128,-3.146862,-8.043659,-222.908,-29.16142,-32.5057,209.4811,63.66282,-17.97449,-101.3308,-38.57969,-3.028783,-21.75183,-15.63273,-6.988161,-34.53636,-18.56118
0,28,-15.26447,-65.29821,-14.83075,-7.514186,-10.6695,-222.5435,-26.68126,-32.80424,209.3274,63.65631,-18.55489,-98.74829,-38.41311,-3.791108,-26.27292,-19.48768,-10.69509,-33.02573,-19.74289
0,29,-16.83731,-68.22669,-15.17818,-12.00171,-13.0552,-223.2957,-26.73413,-34.54991,206.5007,61.53888,-22.0294,-99.06467,-40.68092,-8.425746,-28.65388,-20.84638,-14.98967,-34.30406,-21.98257
0,30,-13.77477,-64.05979,-11.16584,-6.760492,-8.481987,-220.6365,-25.35153,-30.85902,206.9951,63.52284,-18.96967,-97.62667,-37.4338,-3.973231,-22.13394,-13.02879,-9.323931,-33.44963,-18.2827
0,31,-0.2891657,-52.10474,-0.5680046,0.2960657,2.791663,-204.8732,-8.262577,-15.49229,222.0637,77.61358,-5.220816,-81.11402,-25.48627,3.9164,-10.58774,-4.108785,-3.610075,-17.40453,-6.755074
0,32,-0.06678391,-53.37839,-1.768314,-2.111043,1.555482,-204.4081,-12.05549,-17.30108,221.7151,76.52178,-6.019967,-84.26705,-27.7218,2.272393,-8.694141,-1.505028,-3.720913,-18.796,-7.26544
0,33,-13.68081,-66.83782,-14.83256,-11.45987,-11.20219,-220.1818,-29.09454,-33.0229,204.9516,61.19867,-21.33588,-100.8001,-40.29615,-5.993887,-22.1611,-12.41674,-10.38595,-34.09489,-19.19482
0,34,-17.96562,-69.66305,-18.4319,-14.85401,-15.12588,-222.0801,-30.59033,-35.49158,200.2862,57.93438,-24.16968,-101.382,-42.1016,-9.177154,-27.81416,-19.02316,-13.15872,-37.58404,-23.06139
0,35,-15.74994,-66.46101,-15.89385,-9.140698,-10.98416,-219.4516,-30.41207,-34.4314,199.7242,58.40617,-23.08419,-102.9012,-40.63423,-4.351204,-21.91096,-14.45147,-7.879244,-37.45232,-20.55317
0,36,-22.56116,-72.52942,-23.09104,-14.56418,-17.13614,-225.0594,-35.36415,-40.20145,191.6829,51.70498,-30.16229,-108.6285,-45.54127,-7.731215,-29.01886,-21.31151,-11.45951,-43.69335,-26.2485
0,37,-23.3556,-71.5349,-23.00887,-17.27777,-17.77486,-222.4459,-31.03291,-37.37189,191.9257,52.99397,-27.24936,-103.3602,-43.925,-8.786916,-30.38416,-22.57237,-15.66985,-40.01036,-25.81878
0,38,-23.66856,-71.48235,-21.40805,-15.21916,-17.03392,-225.0792,-33.60043,-38.7065,189.0718,50.96851,-27.84747,-106.7824,-44.65206,-6.33866,-29.31433,-19.0168,-13.34856,-41.81642,-25.17944
0,39,-28.40692,-76.77151,-27.40356,-21.15187,-22.74928,-229.1192,-37.32494,-42.32141,184.9131,47.06101,-33.40525,-109.5342,-47.88469,-10.22843,-35.81998,-25.6461,-16.31882,-46.49745,-29.94432
0,40,-25.46254,-72.94393,-24.19338,-17.63341,-19.19269,-223.7352,-34.27835,-39.40052,186.757,49.87904,-30.17538,-105.4753,-44.84338,-7.742549,-31.38775,-22.36156,-15.00406,-42.53639,-26.93124
0,41,-7.32504,-56.05718,-7.66434,1.364485,-1.98415,-207.3054,-23.03266,-25.34301,201.1257,64.1684,-14.24286,-93.93739,-30.35922,11.05642,-12.90602,-3.550729,3.183851,-27.87104,-10.35449
0,42,-9.131191,-58.62811,-10.92366,-2.74778,-5.258211,-208.3182,-22.55732,-26.80161,198.536,62.13333,-15.84666,-93.96925,-31.55524,9.103155,-18.21031,-8.093849,1.398803,-29.06554,-12.43108
0,43,-24.19597,-72.78825,-24.64872,-17.45324,-20.26913,-221.752,-38.849,-41.1738,182.9643,46.82618,-30.22755,-109.5033,-46.84629,-6.211999,-32.18594,-22.95739,-12.66757,-42.85788,-26.58617
0,44,-23.58892,-71.28737,-25.14126,-12.97702,-18.88165,-221.7722,-41.5075,-41.73663,179.9363,45.39939,-29.90907,-111.5933,-45.51279,-0.5351806,-30.87361,-22.81689,-6.281321,-44.40628,-25.42222
0,45,5.510959,-42.54731,2.166584,13.0832,8.941602,-189.864,-7.890338,-12.48176,209.6042,74.99944,-0.1599434,-78.03351,-17.4945,22.27022,-6.189518,1.078515,13.57907,-14.22608,0.7221209
0,46,1.309785,-46.37813,0.7093001,7.81759,5.654125,-192.85,-11.09407,-15.49138,205.7477,71.39925,-4.686623,-81.60243,-22.24141,15.43244,-7.213976,2.049281,6.811239,-17.62555,-2.884146
0,47,-4.729758,-51.30766,-5.490017,2.693265,0.07088654,-198.2828,-17.09532,-21.03356,199.1031,64.87677,-9.064503,-89.06179,-28.64751,10.27969,-12.67046,-2.078067,2.009881,-23.1312,-7.892696
0,48,-13.36925,-60.08826,-13.78345,-7.191364,-8.296496,-206.2372,-21.67803,-28.29188,190.9673,57.32844,-17.75174,-94.69847,-36.10059,-0.02957696,-21.86863,-9.881649,-7.326764,-30.57232,-16.00844
0,49,-33.7606,-78.65936,-30.83268,-21.21455,-25.90016,-228.6046,-47.08289,-49.48679,165.9102,34.81107,-38.99343,-119.827,-55.04548,-13.23527,-37.09074,-22.14898,-17.30464,-54.10427,-33.36687
0,50,-33.65237,-78.73655,-33.29856,-19.43978,-26.51825,-227.9654,-49.14932,-51.15483,164.6181,33.48857,-39.99712,-122.1386,-55.39516,-9.467249,-39.19802,-25.53691,-15.01886,-53.59519,-33.21603
0,51,-24.56993,-69.97282,-25.59712,-11.88385,-17.91075,-218.1964,-38.49044,-41.6152,173.0991,42.0613,-30.88028,-112.0282,-47.57824,-4.824782,-31.20817,-18.76714,-9.69699,-44.65884,-25.61403
0,52,-9.794139,-55.35885,-11.89236,3.851697,-3.396985,-204.1786,-28.86288,-29.42593,185.5159,54.09328,-16.44301,-102.0961,-36.46517,6.748123,-15.1257,-3.871835,3.575934,-33.1925,-12.74288
0,53,4.469724,-42.31766,0.7411376,12.92088,9.330904,-188.1411,-10.05559,-13.55266,200.2401,68.57204,-2.030289,-84.77541,-23.17507,16.80411,-3.239394,6.058647,11.08975,-16.82501,-0.1966418
0,54,3.210022,-43.6447,0.1209073,8.934812,7.678953,-187.6467,-9.282819,-12.89416,198.4945,67.653,-3.152286,-82.3811,-24.81376,9.981443,-4.214003,4.958895,4.462724,-15.81791,-1.781721
0,55,-21.66569,-65.65849,-21.47608,-12.00767,-14.90933,-210.4064,-35.57191,-36.71108,173.038,43.27314,-25.98619,-108.9023,-47.81879,-9.623075,-24.30087,-14.61846,-13.34801,-40.44978,-23.62474
0,56,-12.88615,-58.59112,-15.55399,-6.112505,-8.307768,-199.8496,-24.68735,-28.83056,183.6825,53.51592,-18.68193,-96.73691,-37.82061,-1.658798,-19.97865,-9.887502,-5.564189,-32.27277,-16.55276
0,57,-5.566849,-53.07739,-9.115164,-0.813242,-1.857958,-192.7012,-20.75389,-25.66656,188.0126,57.80988,-12.78136,-93.71391,-34.34757,2.115263,-11.20427,-1.744182,-0.7362076,-27.08463,-10.89999
0,58,-16.07646,-62.29852,-18.73025,-8.148881,-11.75536,-201.9403,-34.38048,-37.10334,172.8804,44.69557,-23.61833,-107.7925,-44.8982,-4.119311,-20.85779,-10.56575,-5.322824,-39.20961,-20.21637
0,59,-31.45636,-74.86072,-33.2163,-22.04281,-25.84034,-212.6398,-44.32459,-48.46292,159.3841,32.14126,-36.50719,-118.3448,-56.49881,-16.02137,-36.31828,-27.52561,-18.38424,-50.90826,-33.54653
0,60,-32.46999,-75.15868,-34.17381,-20.68318,-26.23678,-213.4588,-49.51874,-50.13613,156.1525,29.47515,-38.45934,-123.2185,-58.40944,-14.04814,-34.82389,-25.31215,-16.55692,-52.98786,-33.74479
0,61,-27.16388,-70.45947,-31.11301,-16.14444,-22.40292,-207.9818,-45.28383,-44.15516,159.7841,33.56305,-34.51336,-118.4766,-53.45853,-8.289954,-32.30941,-22.51438,-10.52064,-48.45758,-29.15788
0,62,-30.90716,-74.65102,-34.01229,-22.08947,-26.3166,-209.7798,-43.63978,-47.22111,158.428,32.00054,-38.20992,-117.5755,-55.96898,-15.52407,-37.84674,-29.21267,-16.96581,-51.08395,-33.7586
0,63,-29.91956,-73.44663,-33.41311,-18.54505,-24.70444,-209.5012,-46.86079,-48.49861,155.5303,29.88366,-38.50594,-122.0626,-57.34098,-13.55548,-35.10153,-24.86586,-13.72228,-52.47871,-32.61574
0,64,-10.42328,-53.97461,-15.75978,-1.013288,-5.967196,-188.5188,-25.74498,-28.37949,175.3514,49.70463,-17.78525,-99.31171,-38.20144,2.617815,-16.97956,-10.46027,-0.1862379,-31.42035,-14.88764
0,65,-7.26584,-50.51487,-12.0171,-0.05963358,-3.443239,-182.8833,-22.46414,-24.0283,178.6674,53.21751,-14.14379,-94.1661,-35.8661,2.065811,-13.31096,-6.029417,-1.875365,-26.28931,-11.9538
0,66,-1.38096,-44.99547,-7.557432,7.351584,1.843841,-177.7402,-23.26125,-21.54894,180.022,54.81645,-9.509604,-96.04829,-33.82883,8.654201,-6.52761,1.795051,6.391813,-24.01995,-6.810106
0,67,-2.726322,-45.63346,-10.01943,4.907189,0.3364009,-176.9459,-20.54146,-21.90141,178.5655,53.82026,-8.596295,-95.21217,-34.49944,6.751173,-9.67732,-2.540514,4.282036,-23.92756,-8.181536
0,68,-6.807539,-48.07711,-10.89574,1.819918,-2.260591,-179.3931,-24.4528,-24.49388,174.2267,50.47921,-11.46658,-97.64781,-37.66689,2.505743,-10.27642,-3.671558,-0.4631022,-26.8998,-11.27305
0,69,-7.420615,-47.88046,-11.75982,4.214259,-1.768076,-180.6855,-26.54679,-25.81372,171.7906,48.71513,-12.16459,-100.5074,-38.20204,4.920863,-9.76779,-3.509241,1.899581,-28.34674,-11.21096
0,70,-1.58665,-43.00605,-6.029494,5.040896,2.935751,-172.6098,-16.03739,-18.10105,178.632,56.03868,-5.739111,-89.21552,-31.12268,7.754314,-4.867848,-1.689241,3.493024,-20.6932,-6.552316
0,71,-2.091701,-45.06367,-6.710883,1.601308,1.179547,-172.8839,-18.46548,-20.26019,177.1006,54.09421,-7.492941,-91.99584,-34.11506,4.439137,-4.788669,-1.136794,0.852194,-21.67869,-7.851046
0,72,0.1845785,-42.32074,-5.223542,4.353971,3.253909,-170.4515,-16.80348,-17.43357,177.313,55.06942,-4.810257,-90.41628,-32.33445,6.493253,-3.298613,0.107654,3.503741,-19.81028,-5.742529
0,73,-1.748134,-43.73787,-5.86454,2.006556,1.793892,-171.547,-15.53548,-17.99489,176.6059,54.93864,-5.74825,-88.03838,-32.12521,4.584816,-5.586471,-2.022849,0.1057994,-19.62936,-7.038882
0,74,-10.84114,-52.61469,-14.53427,-3.025762,-6.343043,-181.4413,-30.47061,-30.02258,165.121,44.15558,-17.06626,-102.2373,-41.57181,-0.1554861,-11.7527,-5.706976,-2.411845,-31.89871,-15.00677
0,75,-5.172969,-46.88107,-11.16051,3.784608,-1.034876,-175.7767,-25.99463,-24.39401,168.4082,47.76534,-12.2432,-98.96935,-37.01869,7.137025,-7.582562,-4.465887,4.083416,-26.37973,-9.93366
0,76,-4.21612,-46.143,-10.14089,3.784329,-0.1744595,-175.2634,-23.73726,-23.81286,168.2794,48.46257,-10.19272,-95.77062,-35.97086,4.97376,-7.245125,-4.079155,2.78339,-25.05875,-9.350956
0,77,-0.7406179,-41.51472,-5.16452,11.02963,4.568183,-172.3177,-24.2316,-21.60959,168.87,49.96484,-7.342497,-96.44947,-33.48971,10.53046,-1.568552,3.104994,9.544348,-24.62186,-5.629266
0,78,-0.2620889,-40.62258,-4.83591,9.827477,4.84355,-168.1545,-18.14319,-17.88219,171.47,52.66018,-7.583524,-91.30769,-31.3447,10.00814,-3.150623,-0.1885772,7.57444,-21.7653,-5.57815
0,79,-13.90959,-53.491,-15.4048,-3.3298,-7.300982,-181.015,-29.15318,-30.8834,157.5369,39.71217,-20.54367,-103.0509,-43.70867,-3.127409,-14.69126,-11.98749,-5.934093,-33.38957,-17.75862
0,80,-15.66086,-53.47409,-15.8571,-2.002511,-7.97069,-183.519,-33.95314,-32.21169,154.5502,36.97825,-20.62444,-107.7295,-45.58215,-0.8513834,-14.46758,-11.22654,-5.04974,-34.86528,-17.96545
0,81,-16.01265,-53.05156,-15.626,-3.62864,-8.0348,-181.2522,-29.79387,-30.56081,154.3195,38.11347,-19.63825,-103.0893,-43.54647,-0.8977053,-15.34993,-12.23749,-6.890637,-32.83617,-17.71841
0,82,-15.21216,-53.82008,-15.09071,-1.939119,-7.568518,-181.9917,-33.50293,-33.71919,152.0284,36.35979,-21.89413,-106.8188,-44.55346,0.09545143,-13.73678,-9.129368,-3.00093,-36.27231,-17.8217
0,83,-25.84046,-65.28317,-26.32979,-9.134448,-17.83714,-196.4043,-47.92027,-48.16565,138.0546,23.04314,-34.04615,-123.278,-55.18205,-3.417582,-24.83466,-17.00667,-5.412738,-49.62695,-26.92438
0,84,-32.3074,-69.98064,-32.18143,-13.72435,-23.49726,-200.7566,-50.78495,-51.15651,132.8269,18.48045,-40.16798,-125.9284,-58.98047,-8.017656,-32.92336,-25.54474,-11.01919,-53.70686,-32.34422
0,85,-24.44421,-62.08636,-23.19034,-4.345726,-15.58316,-194.2444,-47.18383,-45.25038,137.8844,23.75011,-32.90778,-122.7376,-53.29535,0.965199,-24.38079,-16.10767,-2.270398,-48.09064,-24.88778
0,86,-7.07444,-46.37108,-8.663961,11.14151,0.6880998,-178.3068,-29.20828,-29.4531,152.8363,39.29194,-16.17956,-105.6857,-36.73216,17.91269,-9.285335,-2.550581,13.72336,-32.15593,-9.237177
0,87,-20.45736,-58.3563,-18.65847,-3.32032,-11.61119,-187.9391,-36.61474,-39.48366,142.3833,29.78458,-28.21882,-111.4078,-46.42177,2.90677,-21.64912,-15.18713,-1.286312,-42.40704,-21.51661
0,88,-28.30845,-65.93587,-24.88717,-9.372613,-19.24446,-195.5224,-48.09624,-48.98121,133.6039,20.97297,-37.05564,-122.8198,-54.94361,-2.346897,-28.14364,-20.50317,-5.616312,-51.72131,-28.74511
0,89,-17.29689,-55.92178,-16.39042,-0.8110941,-9.994555,-183.9801,-37.26707,-37.02373,143.3752,30.73959,-27.19909,-111.4089,-45.33309,6.690961,-19.83724,-14.35283,1.589716,-39.39685,-19.07699
0,90,-14.00949,-52.25085,-12.93017,1.714345,-6.714115,-178.9513,-33.4106,-34.69496,145.7089,33.28649,-22.85373,-108.3479,-43.83461,5.889556,-16.39652,-9.476935,1.40465,-36.01905,-16.36722
0,91,-21.63687,-58.74295,-18.79237,-1.011459,-12.01788,-188.0899,-44.34873,-44.85801,133.9599,23.19338,-30.73477,-120.9762,-51.60567,3.422031,-20.25179,-11.61956,0.07900122,-46.16733,-22.27661
0,92,-15.59957,-52.48743,-13.29561,3.900161,-6.6576,-181.5466,-36.70738,-36.45107,140.2075,29.77644,-24.26397,-112.6289,-44.49308,9.891097,-16.09106,-8.091097,5.350863,-39.3178,-16.49263
0,93,-11.55139,-48.05202,-8.352786,7.239686,-2.210571,-176.9841,-32.57983,-31.27922,144.1139,33.44158,-20.04167,-109.1819,-42.1032,10.52206,-10.32123,-3.133005,6.175064,-35.05196,-12.97673
0,94,-17.5965,-52.70612,-13.09823,3.582556,-7.197113,-182.2276,-40.2405,-37.19327,135.8191,26.47323,-25.55938,-116.8578,-47.47751,8.402704,-14.37135,-5.797292,3.662268,-41.22456,-17.43789
0,95,-19.26786,-54.12609,-13.93323,-0.6143167,-9.246175,-181.146,-36.12796,-35.91455,134.0389,26.10192,-26.83548,-112.9664,-46.90748,6.406061,-18.36566,-10.02087,-0.3245753,-39.92836,-18.81132
0,96,-17.50237,-53.26239,-11.7039,0.4837276,-7.514858,-180.3185,-35.69585,-36.17722,135.8415,27.65519,-25.61367,-111.9587,-45.9734,6.688808,-15.36676,-5.548152,0.3359941,-39.03773,-17.31976
0,97,-11.05331,-47.41224,-6.663159,6.552265,-1.512962,-173.6857,-30.49604,-30.73044,141.3063,33.10171,-20.23289,-107.3106,-40.61412,12.97675,-8.893624,1.093316,6.893911,-34.00112,-11.60643
0,98,-10.73307,-46.12956,-5.345996,4.318647,-1.433357,-170.3658,-26.60633,-27.15671,142.8447,34.68258,-18.02131,-103.1694,-40.06229,10.10936,-8.741142,-1.403374,2.364029,-30.29654,-11.46819
0,99,-10.1981,-46.67054,-4.342966,6.630502,-0.3831845,-173.3342,-31.74717,-30.34083,139.5631,32.00136,-19.18248,-108.6277,-41.47552,12.97811,-5.292462,3.015724,6.470063,-33.09544,-10.74431
0,100,-14.23325,-49.97218,-9.826946,4.62056,-4.158993,-177.3991,-36.13237,-34.24398,134.7601,27.62423,-22.64521,-113.2546,-44.46593,12.83119,-10.11235,-2.360724,5.601651,-36.49751,-13.80961
0,101,-15.84346,-51.55962,-11.55477,1.248461,-6.364204,-177.8766,-35.96404,-34.01653,133.9534,26.69537,-23.79568,-112.7608,-45.78632,9.467731,-12.59953,-6.904706,2.271476,-36.77357,-15.81332
0,102,-17.46831,-51.71938,-10.82226,3.768266,-5.859186,-179.4969,-39.99267,-36.90568,129.2482,23.44542,-25.84149,-118.4625,-47.21432,13.55014,-10.69279,-2.653833,5.723328,-40.36761,-15.83219
0,103,-15.63282,-50.12081,-9.733278,2.963594,-4.762154,-175.3395,-33.57283,-32.90918,131.9593,26.72671,-23.89742,-111.53,-43.83506,13.53725,-11.09282,-4.935617,4.506356,-36.18778,-14.55929
0,104,-19.12203,-52.76907,-11.48953,-2.67722,-8.181374,-176.8427,-34.12099,-34.28925,128.5627,23.76591,-25.44215,-112.6177,-47.71941,5.944509,-14.22132,-6.637112,-2.872536,-37.7655,-17.76434
0,105,-28.99889,-61.79254,-20.5932,-10.4964,-17.3907,-186.0061,-46.4211,-45.07726,116.9311,13.0718,-35.14902,-124.4776,-57.20312,-1.04727,-22.15976,-13.37202,-8.600393,-48.56269,-26.41537
0,106,-22.99265,-57.12089,-16.12678,-7.38421,-12.47511,-179.0091,-37.31581,-38.84647,123.7188,19.75511,-30.1788,-115.5544,-50.9416,2.568772,-18.42053,-11.44066,-5.650034,-41.74976,-21.76286
0,107,-19.50649,-53.30532,-12.48229,-2.281975,-8.713371,-175.4787,-37.4364,-37.15357,123.4952,20.62489,-27.52373,-115.2084,-49.88029,3.32889,-13.84789,-4.189059,-2.775595,-40.41159,-18.68106
0,108,-26.94025,-58.95572,-19.02201,-6.268369,-15.00639,-183.3483,-47.18762,-43.1172,114.7758,12.45411,-34.13389,-125.1925,-56.53255,0.6747358,-19.55081,-11.06221,-4.898705,-48.47278,-24.70869
0,109,-25.64585,-59.216,-19.47163,-7.031363,-14.9875,-182.2867,-42.99084,-43.09064,115.3803,13.08308,-33.56852,-122.864,-55.66478,-0.1956,-22.35223,-14.94808,-4.739009,-47.51983,-24.85382
0,110,-35.22337,-67.64593,-27.22248,-11.65335,-23.16718,-193.8443,-57.11872,-54.16877,102.1841,0.9776368,-43.98933,-137.7297,-65.9111,-5.164227,-30.47557,-19.37824,-8.866327,-58.73696,-32.54655
0,111,-35.52357,-67.38151,-27.85155,-10.72307,-22.93686,-192.7688,-56.35481,-53.94324,100.3265,0.5962434,-44.73573,-136.8903,-64.15112,-0.7921203,-30.7427,-21.17502,-6.25591,-58.46355,-32.11221
0,112,-30.54927,-64.04951,-23.90709,-10.51189,-19.59496,-186.2852,-47.73611,-47.84041,107.4773,6.74227,-40.84056,-128.7154,-60.09213,-2.014423,-28.04926,-20.47981,-6.931115,-52.54697,-29.22799
0,113,-39.29621,-70.46996,-29.87688,-15.85763,-26.61373,-194.9482,-59.15985,-56.63885,96.77924,-2.833936,-47.11532,-139.1574,-68.88164,-9.822311,-33.51134,-23.56971,-13.48868,-61.59421,-36.19504
0,114,-34.33804,-66.71476,-26.61199,-12.06757,-22.65493,-189.7076,-52.9164,-51.76897,102.6112,2.651427,-44.08518,-132.8467,-63.39665,-4.618885,-31.07435,-22.43936,-9.046686,-56.58744,-32.24791
0,115,-14.34185,-47.03455,-7.946929,5.53423,-3.229319,-169.4263,-33.30834,-31.6837,121.8617,21.43395,-23.34008,-112.9699,-46.65818,8.821595,-10.59655,-2.999846,2.686853,-35.63852,-14.01747
0,116,-9.150486,-41.91628,-3.0919,12.12252,2.129137,-164.9974,-32.59733,-29.27016,122.9851,23.24131,-18.58871,-113.6166,-43.95702,15.65734,-3.613046,4.607873,10.2254,-33.26701,-9.04036
0,117,-15.25293,-47.22466,-7.625422,6.164881,-3.433624,-168.6459,-35.04358,-34.17794,118.0203,18.83777,-24.31668,-116.3072,-47.94807,10.49651,-10.41798,-3.26276,4.510372,-37.97919,-14.763
0,118,-23.01564,-55.28504,-14.46503,-1.098845,-10.68113,-177.0501,-44.58299,-42.33447,108.7186,10.11906,-33.38708,-125.9254,-56.03028,3.386619,-15.78266,-9.24739,-0.8572656,-46.92858,-22.14744
0,119,-28.81458,-60.22044,-20.36006,-3.902161,-16.11099,-182.0876,-52.74324,-49.87733,101.405,3.087721,-39.22885,-134.7664,-62.24939,-0.1127804,-21.81884,-15.5352,-2.557714,-54.49835,-27.77766
0,120,-18.70724,-51.4564,-11.14624,0.8439354,-8.122091,-169.6517,-37.75881,-38.66018,113.0344,14.16264,-28.88696,-120.165,-52.60772,4.953201,-15.98959,-11.82369,0.5800294,-41.99161,-19.71812
0,121,-19.45046,-51.61326,-11.03391,0.5994012,-8.375172,-169.7426,-39.17437,-40.03331,110.4709,12.55521,-28.93847,-121.3822,-53.90176,2.983211,-15.47767,-9.49098,-0.4645417,-43.30121,-20.17422
0,122,-27.59838,-58.14466,-18.55965,-4.830606,-15.06867,-176.254,-46.2908,-47.49874,101.2924,4.42742,-36.57722,-129.32,-61.02633,-3.126535,-22.46233,-16.82408,-6.412528,-50.68512,-27.14105
0,123,-26.82074,-57.22025,-16.88399,-5.612148,-14.45198,-174.4011,-43.62677,-44.75743,102.8942,5.899901,-35.67486,-125.8478,-60.66943,-6.964183,-21.92582,-18.89549,-9.933065,-48.38902,-27.26333
0,124,-26.01914,-53.77729,-13.65208,1.505848,-10.95791,-174.142,-47.03323,-44.06831,99.88912,4.214961,-34.94179,-130.338,-60.93703,-1.859681,-17.337,-12.93622,-5.736668,-48.74385,-24.80614
0,125,-12.30729,-40.73313,-1.691707,15.06464,1.727783,-160.2352,-34.73911,-32.65631,111.4235,16.01531,-21.7498,-118.0206,-48.68404,11.91064,-6.111699,-2.474894,6.171405,-35.4413,-12.36074
0,126,-11.01245,-39.31641,0.1017261,13.34372,2.906656,-156.6757,-30.13562,-29.84975,113.5739,18.28404,-19.24426,-114.0029,-47.7114,8.536494,-3.954838,-0.3648058,3.531298,-33.29725,-11.65386
0,127,-8.473107,-35.55556,4.126681,18.45763,6.311849,-153.9677,-30.44042,-27.52307,114.2533,19.49943,-16.80466,-114.6894,-46.16405,11.9215,0.2303047,5.634466,8.311315,-33.23673,-8.972345
0,128,-12.53271,-39.37336,0.7630453,13.2701,2.209982,-155.7419,-30.11408,-29.98966,110.4177,16.64577,-20.82286,-114.1536,-48.40733,7.202997,-5.667719,-1.566596,2.419151,-34.78075,-12.9211
0,129,-5.896707,-36.64071,5.175761,12.60797,5.228827,-149.5288,-25.05953,-25.04035,116.1416,21.30945,-17.06758,-109.3745,-45.54998,7.080401,-1.266684,2.271462,4.78786,-30.16617,-9.294146
0,130,-9.054411,-39.18921,1.299533,10.02687,1.756037,-152.2728,-31.15912,-29.09447,111.7025,17.06711,-18.75913,-114.0182,-49.61576,3.98713,-3.757185,0.1113179,1.745162,-32.67836,-11.87379
0,131,-1.405415,-32.34554,7.114438,14.53864,8.508389,-142.7913,-19.54397,-19.28045,121.3175,26.47407,-11.90524,-101.4796,-41.18155,7.815027,2.258045,3.138104,4.763153,-23.27187,-5.672974
0,132,-4.212631,-35.13032,6.140876,11.75844,6.407649,-145.5254,-24.63169,-23.28711,115.521,21.19367,-15.27534,-109.1853,-46.4138,5.005964,2.941498,3.995828,3.340953,-28.11656,-8.390636
0,133,-11.63924,-41.57929,-1.256704,8.736309,0.1148795,-154.2087,-34.28926,-32.43645,104.603,11.71244,-22.72715,-119.8878,-53.06387,4.504318,-4.510035,-1.772099,1.649705,-35.69508,-13.8213
0,134,-3.916896,-32.84721,5.635196,16.33656,8.033841,-144.852,-22.59794,-21.66334,113.2071,20.66006,-14.26999,-108.0116,-44.23591,10.98851,1.177521,2.382233,5.443427,-24.95836,-6.259769
0,135,-5.534446,-34.40713,5.074448,15.04736,6.831614,-146.0598,-27.76281,-25.09356,108.8057,16.88476,-16.18659,-113.7731,-47.69641,9.837626,3.042768,4.005358,5.616729,-28.63902,-7.834371
0,136,-1.993732,-30.71553,8.670434,17.68757,9.815636,-141.4819,-22.49691,-20.9506,111.9174,20.54615,-11.9256,-109.0551,-43.28546,14.12372,4.714485,6.083172,10.15063,-25.91675,-4.710559
0,137,-4.134535,-33.80849,7.600015,10.91945,6.492663,-142.2365,-20.38479,-20.98593,110.6589,19.74785,-13.81231,-106.0881,-44.31485,9.039384,0.9422342,1.784627,3.853287,-25.3285,-7.138222
0,138,-18.48191,-47.33732,-5.089387,-1.484095,-7.048172,-155.5743,-37.44907,-35.61688,96.00064,5.438698,-28.72364,-122.8708,-57.87474,-1.037238,-10.34749,-8.351143,-5.073408,-40.5966,-19.86153
0,139,-15.37,-45.35566,-5.157736,-0.8086077,-5.652937,-152.6353,-33.29086,-31.94361,98.7176,8.074913,-25.68243,-118.4727,-54.95795,0.6083323,-10.37004,-10.26589,-3.216577,-36.80693,-17.73466
0,140,-18.49138,-50.99611,-8.976148,-6.672407,-10.00608,-158.305,-37.21931,-37.22884,94.26064,3.379647,-30.55558,-123.7009,-59.42757,-3.040355,-14.24651,-13.58401,-6.007641,-40.9407,-21.35068
0,141,-19.53867,-50.58669,-8.890303,-1.715839,-9.759548,-161.3271,-44.08952,-40.45361,90.37872,-0.1491847,-31.78498,-131.4443,-60.94399,3.240927,-14.11607,-13.19771,0.5117385,-45.13251,-21.37694
0,142,-7.735223,-38.5752,0.9123082,8.52555,0.9429016,-147.7578,-30.4141,-26.68088,102.6807,11.44237,-19.66065,-119.0704,-50.39044,12.74514,-5.197927,-7.072522,8.669052,-32.25662,-11.10531
0,143,-3.599078,-34.3029,5.073011,12.27149,5.688682,-142.2974,-26.46895,-22.80566,106.639,15.45854,-16.04634,-115.203,-47.58893,14.02983,1.465338,0.1996956,9.565489,-27.71877,-7.167952
0,144,-1.48077,-31.97781,7.419662,16.13672,8.366039,-141.8315,-25.76956,-21.79738,106.0695,16.17573,-13.54998,-114.1101,-44.85303,19.09317,3.949637,3.150321,14.29109,-26.62514,-4.480016
0,145,-1.30035,-32.67334,6.655951,11.28367,6.880138,-139.7285,-19.99311,-19.78901,108.624,17.8769,-12.0397,-108.8572,-45.20824,11.9506,0.5098505,-2.051844,7.280373,-23.36963,-5.798163
0,146,-8.666024,-37.85999,1.504714,6.713661,1.299164,-144.9967,-27.53258,-26.16096,99.85973,10.38153,-18.66924,-116.2251,-52.42101,4.543468,-4.214145,-4.523702,-0.0005286671,-29.72071,-11.63851
0,147,-7.284457,-35.87979,3.016737,7.928811,2.720852,-143.3092,-26.3107,-23.85769,100.628,11.52621,-16.03752,-114.894,-50.73363,7.070094,-2.253881,-3.155119,2.067685,-28.19921,-9.944638
0,148,-9.675577,-41.05432,0.02149495,0.6082259,-1.739058,-145.0002,-26.83199,-27.56848,98.52683,9.175488,-20.96281,-116.1865,-53.79946,1.261482,-6.884357,-6.792645,-1.800899,-31.72329,-13.87861
0,149,-17.58655,-47.93938,-8.329324,-3.128813,-8.727448,-154.7781,-40.18258,-37.22563,86.62897,-1.824934,-28.66082,-130.144,-63.02634,-2.684813,-12.81966,-10.89822,-4.171665,-41.48899,-20.26504
0,150,-11.05293,-40.61444,-2.66702,4.707509,-2.170153,-147.2336,-33.95021,-30.10295,92.21961,4.390076,-21.86798,-123.4559,-55.68011,6.497543,-7.125945,-6.863743,3.84706,-35.1716,-13.88227
0,151,-5.20968,-35.57787,4.214591,7.949432,3.343649,-141.0025,-25.85084,-23.15737,97.32928,10.10282,-17.02068,-115.6893,-50.1087,9.869842,-1.498544,-1.667834,6.218901,-28.65629,-8.776519
0,152,-21.65268,-50.01615,-9.500278,-3.505891,-11.53626,-157.5737,-44.78074,-40.57974,78.96362,-7.520956,-32.8097,-136.4743,-66.03704,-0.007830966,-16.99934,-13.00787,-3.354757,-45.7617,-22.57221
0,153,-16.31715,-44.74219,-6.940678,0.243006,-7.028305,-150.4254,-35.85624,-33.54198,85.79836,-0.8663688,-27.06074,-127.6691,-59.6607,4.418451,-14.4111,-11.65449,-0.2607496,-38.53902,-17.7944
0,154,-8.860376,-37.31966,1.866554,4.373147,0.7801914,-142.0379,-25.8294,-23.58824,94.39272,7.799183,-18.7398,-117.7871,-52.04795,9.600099,-3.9269,-1.629027,3.207572,-29.86851,-10.41599
0,155,-7.10209,-34.33282,4.905428,7.779335,3.557537,-139.3837,-26.22924,-22.90996,94.81666,8.88418,-15.42921,-117.1711,-50.5966,12.30876,0.7310564,2.292122,5.255514,-28.24925,-8.156646
0,156,-5.227715,-33.42481,4.999762,6.324351,4.474748,-135.1482,-20.40298,-20.57898,96.07336,10.90198,-14.03849,-111.87,-48.70618,10.34209,0.8352715,0.8696847,3.558774,-25.11527,-7.411405
0,157,-8.988569,-37.04679,2.945891,3.204288,0.8075904,-139.9398,-28.17142,-25.52215,89.10126,4.617133,-17.85506,-119.4425,-54.49525,6.283936,-1.111857,0.3656325,0.5972924,-30.00531,-10.74077
0,158,-12.27053,-41.3462,-3.059052,0.5401559,-3.434095,-145.1968,-36.29419,-31.12997,82.93209,-2.069856,-22.34601,-129.3615,-60.81048,4.11613,-4.628835,-4.098973,0.3993293,-35.35817,-14.399
0,159,-15.6919,-46.21152,-9.332783,-6.527102,-8.684441,-147.5348,-36.39609,-34.57235,80.09404,-5.22631,-25.66857,-130.6631,-64.34351,-2.211604,-11.60684,-11.93711,-4.500634,-38.06421,-18.86777
0,160,-32.55553,-61.6468,-22.43032,-20.01783,-24.06952,-165.0642,-56.23459,-51.94746,60.49781,-22.98914,-41.93231,-149.3017,-79.6234,-13.95812,-25.63941,-23.03303,-15.08415,-55.80825,-33.21879
0,161,-25.59913,-54.43944,-17.36669,-12.44618,-17.29617,-157.1758,-48.65359,-44.28036,66.35396,-16.48996,-35.55059,-142.1567,-71.97485,-4.096229,-20.04046,-18.35483,-7.235156,-48.38255,-26.26437
0,162,-10.68042,-40.29406,-3.073762,-1.358293,-2.981688,-141.024,-29.71024,-27.25844,81.80894,-1.090023,-20.97699,-123.7605,-58.04056,4.780582,-5.928546,-6.798324,0.4408441,-32.1451,-13.30256
0,163,-18.73355,-50.02037,-9.497797,-8.350557,-11.18836,-152.6461,-42.57409,-38.37242,72.61323,-10.98497,-32.13212,-137.451,-67.92471,-1.94632,-12.96733,-11.46277,-3.693585,-43.61379,-21.34609
0,164,-25.66049,-57.16114,-16.06003,-15.04873,-17.8448,-159.1191,-46.05481,-44.46537,66.87003,-16.66247,-40.21786,-142.6715,-73.03418,-6.806931,-21.53279,-20.19778,-8.462681,-50.22477,-27.96224
0,165,-27.97684,-57.90611,-17.28513,-14.59969,-18.49993,-160.5429,-48.05838,-46.71059,63.23098,-18.90847,-41.61121,-144.4659,-73.96484,-6.382677,-21.87506,-19.10394,-8.954585,-52.09814,-28.83434
0,166,-30.81887,-57.65021,-18.42207,-11.71976,-19.63472,-161.8373,-54.49421,-50.38569,57.16211,-23.90466,-42.51029,-152.0035,-77.25497,-2.875279,-23.25215,-19.75378,-7.476188,-54.77852,-29.77092
0,167,-26.90868,-53.66794,-16.51334,-7.797439,-15.98682,-157.6832,-49.41718,-45.19752,60.94661,-19.80963,-38.7607,-146.5819,-72.47006,2.430377,-20.71739,-18.43156,-4.070729,-49.27429,-25.70373
0,168,-13.84719,-41.01383,-4.219145,5.784615,-2.707172,-145.5333,-38.79675,-32.84856,70.95911,-9.332676,-27.65377,-136.8034,-62.33131,12.6304,-6.529401,-3.878508,6.500917,-38.03083,-13.82174
0,169,1.10792,-27.28661,7.755754,19.01725,10.95723,-131.8547,-26.36521,-19.83522,84.95636,3.722217,-12.32905,-124.2736,-50.2249,24.49483,7.842996,7.010258,18.31393,-24.12621,-0.9325031
0,170,-2.744162,-30.63056,5.02035,11.51336,6.676763,-132.4433,-23.29708,-20.8326,83.26665,2.548395,-13.70646,-120.9264,-52.04278,16.52493,2.087485,1.075387,9.979114,-24.80059,-4.881298
0,171,-0.6222115,-28.6126,8.095181,12.85598,8.529297,-129.4673,-23.69669,-19.98284,84.06367,3.219647,-11.76485,-121.4808,-52.33839,16.30852,5.792978,5.317214,10.2959,-23.48191,-3.291301
0,172,-0.209434,-28.68962,7.127388,13.30935,9.039243,-129.4132,-22.88739,-19.35319,83.55567,3.071477,-12.63765,-121.7394,-51.73855,18.55168,6.39087,5.107949,11.89967,-23.00846,-2.700654
0,173,1.755362,-27.76564,9.223307,12.47194,10.12815,-125.7608,-17.87308,-17.20893,86.06554,5.367887,-12.07426,-118.3251,-50.55462,16.9951,6.432577,5.830475,10.65464,-20.82451,-1.909094
0,174,-7.053305,-35.90431,0.9773902,6.736396,2.332607,-135.5126,-32.04058,-28.3151,72.89652,-6.620719,-21.23975,-133.0757,-61.19523,10.39488,1.056298,2.451541,6.332271,-31.94195,-9.501985
0,175,-11.59311,-41.51583,-5.934986,1.58045,-3.330584,-141.3441,-37.94341,-33.69694,67.88387,-11.69155,-26.23629,-138.3447,-65.24644,8.01046,-4.925852,-3.822564,4.677286,-36.90417,-13.87341
0,176,-15.03522,-46.51418,-10.24521,-4.046606,-8.156488,-145.4839,-41.2254,-38.0472,62.69146,-16.32957,-30.82879,-141.3927,-69.46032,1.253551,-10.65328,-9.272555,0.8229209,-41.5675,-18.40526
0,177,-24.15862,-53.27207,-18.01461,-7.420166,-15.81707,-154.2018,-53.58171,-46.64392,51.61083,-26.73188,-40.39916,-155.1012,-78.3978,-2.141555,-19.12578,-14.73396,-1.574501,-52.35019,-25.71805
0,178,-15.61651,-43.44095,-9.998873,0.8383314,-7.405739,-142.4379,-40.7983,-35.7297,60.83565,-16.86537,-30.49236,-142.274,-68.03689,7.794395,-13.39338,-10.12981,4.283804,-40.60087,-17.07943
0,179,-14.6961,-42.84888,-7.387853,0.1293439,-5.985865,-141.4991,-38.6604,-34.4962,61.42668,-15.77639,-29.55757,-139.593,-67.64876,4.214181,-10.3882,-7.655079,1.827301,-39.68849,-16.7267
0,180,-31.92117,-57.98469,-22.31089,-13.07447,-21.71956,-158.8828,-58.01888,-51.17863,43.78672,-32.77015,-45.34162,-158.4281,-83.34369,-8.587336,-25.59722,-20.1256,-9.421924,-57.28403,-31.49658
0,181,-30.0992,-56.20412,-20.2788,-12.93158,-19.93874,-155.4542,-51.5834,-48.53255,47.34695,-29.20851,-42.69054,-152.7462,-80.00186,-6.859048,-25.2171,-20.41317,-9.969581,-53.21867,-29.68598
0,182,-22.65376,-48.13827,-13.42369,-4.684268,-11.88329,-148.2157,-46.92633,-41.97147,53.39877,-23.53281,-34.37694,-148.9175,-75.54147,-2.171196,-15.04108,-10.6405,-4.856214,-46.58258,-22.709
0,183,-19.99934,-46.02433,-11.11421,-0.8841757,-9.090345,-147.7686,-46.97464,-40.24178,51.87737,-23.74617,-33.24475,-149.9135,-73.77868,2.67559,-11.80575,-6.935784,1.205513,-46.61564,-20.09318
0,184,-22.01212,-49.27206,-14.57567,-5.161791,-12.17299,-149.968,-46.9277,-41.30257,50.85749,-25.07555,-36.27656,-149.4995,-75.27699,-1.023522,-15.89696,-13.23505,-2.271197,-47.47825,-22.83057
0,185,-26.84592,-52.8621,-17.54121,-5.824185,-15.14395,-154.2654,-54.03779,-48.81102,43.26402,-31.77431,-41.38079,-158.1722,-81.13875,-3.672824,-18.28407,-15.68973,-4.424823,-53.59023,-26.98268
0,186,-29.28568,-52.54301,-18.35258,-4.980066,-15.73203,-154.6496,-53.45985,-48.86413,42.26388,-31.94354,-41.22694,-157.6411,-79.91772,-0.8734477,-20.10666,-17.79766,-3.302135,-54.97021,-27.78373
0,187,-14.58455,-38.93309,-5.463185,6.041348,-2.581863,-139.4765,-36.80644,-33.52228,57.00815,-17.18714,-26.27693,-139.2511,-66.25372,7.594293,-7.992495,-6.42352,3.981331,-38.65491,-14.90063
0,188,-17.78735,-42.22098,-6.800392,3.88679,-5.578226,-143.2878,-43.04642,-37.89956,51.6055,-21.88922,-30.84887,-145.2543,-70.3732,5.075389,-9.988599,-5.582382,2.76953,-43.79763,-17.74269
0,189,-20.12459,-44.765,-8.743728,-0.3431555,-8.674122,-144.6196,-42.89732,-38.12395,49.83451,-23.43296,-33.41129,-144.7827,-71.78344,1.878701,-14.2442,-10.8313,-0.8490461,-44.66257,-20.29003
0,190,-20.15461,-43.85292,-7.501309,0.2503122,-7.740292,-143.5832,-42.44291,-38.09291,50.09124,-22.80885,-32.22863,-144.0477,-71.36084,1.500716,-12.18927,-8.078254,-1.165505,-44.72336,-19.88359
0,191,-25.82499,-48.77235,-13.55602,-1.024501,-12.65081,-149.6136,-53.94971,-47.34917,42.23309,-30.15709,-38.23669,-154.9088,-77.15798,1.632359,-15.79146,-9.627789,0.07881701,-53.1821,-24.34049
0,192,-24.86351,-47.67579,-12.96482,1.010903,-11.50937,-148.5119,-50.62851,-45.94243,43.66278,-28.17021,-37.74511,-151.8398,-73.8587,5.853017,-17.0071,-10.04645,3.395043,-52.25916,-23.04117
0,193,-17.50632,-40.02859,-4.758495,9.580335,-3.790949,-141.7891,-45.14918,-38.81183,48.87287,-22.32947,-31.2047,-146.6767,-67.59508,13.18355,-9.102564,-0.6675419,11.03607,-46.74353,-16.00952
0,194,-10.28064,-31.79686,2.032305,18.58975,3.671621,-133.4346,-39.97954,-31.2742,54.66585,-15.99986,-24.27322,-140.3584,-60.97683,21.27289,-1.643819,6.965115,17.28613,-38.89763,-8.638158
0,195,-10.03161,-29.79263,3.55931,17.83299,4.489195,-128.9489,-33.98115,-27.68453,57.09181,-12.91498,-21.82526,-132.43,-58.73411,17.49149,-2.251445,3.941057,11.24659,-33.90728,-8.358514
0,196,-10.73759,-31.22344,3.868568,16.10342,3.680216,-130.1689,-36.92553,-30.55093,55.33633,-14.79649,-22.56923,-135.2141,-61.27281,14.38275,-0.8902513,4.999442,9.541354,-35.88632,-9.631867
0,197,-22.68164,-43.02254,-8.556699,4.576798,-8.17247,-141.0571,-47.63288,-41.97544,43.85947,-25.75815,-34.94175,-146.4279,-71.18906,5.368804,-12.9839,-5.446314,2.380368,-48.5961,-20.58171
0,198,-21.79837,-41.88396,-6.412346,4.940156,-7.144478,-139.9851,-43.36077,-39.13924,45.21683,-24.04706,-34.11085,-142.8882,-69.32892,5.994236,-13.98086,-5.138483,1.249631,-45.88943,-19.35643
0,199,-22.38055,-41.66214,-5.527853,8.416086,-6.405785,-142.7013,-50.10442,-41.90062,41.28629,-26.94769,-35.11876,-148.3003,-70.71696,8.712295,-11.00725,-0.3868923,5.053433,-49.30033,-18.94644
0,200,-14.82106,-33.5541,0.1929478,16.94798,1.231005,-133.4599,-41.99186,-34.84351,48.30186,-19.89931,-27.3443,-141.3761,-63.61225,16.94132,-4.351658,4.346722,12.31023,-41.77215,-12.0497
0,201,-8.642476,-26.02912,7.430181,22.07529,7.574165,-125.4075,-33.51882,-26.62803,54.98686,-13.02551,-18.45317,-132.1854,-57.6503,19.28772,1.66885,9.06125,13.58521,-33.5304,-6.289363
0,202,-16.08422,-33.81761,1.548291,15.95475,0.005294733,-134.5242,-45.56252,-35.9752,44.5926,-22.0173,-26.79406,-141.6003,-64.62485,14.59056,-4.647836,5.843405,10.55143,-43.07835,-12.7369
0,203,-21.68542,-39.66542,-4.295156,6.699739,-6.757034,-136.938,-45.46587,-38.86386,41.52219,-25.26301,-31.80851,-142.1889,-68.4463,6.687636,-13.00379,-4.363589,3.711125,-47.33143,-19.11273
0,204,-12.81218,-32.09484,4.123991,10.79836,0.9759445,-126.6838,-35.61977,-29.23733,52.17841,-15.41115,-23.20219,-131.0049,-60.82753,9.59802,-2.799769,3.864271,6.664214,-37.94104,-11.95489
0,205,-3.513539,-23.28167,13.17328,18.9889,9.947678,-117.8675,-28.55054,-20.47145,59.69136,-7.278198,-14.08678,-122.2475,-52.56826,17.08868,8.06875,14.57873,14.23451,-29.6928,-3.353128
0,206,-0.1255194,-22.61523,14.4682,15.97931,10.67564,-114.845,-22.40136,-16.98586,63.25188,-4.417331,-11.2674,-116.4757,-51.01275,14.36095,7.862272,12.55521,10.86965,-23.95676,-1.734739
0,207,-7.81226,-29.09789,9.270975,10.24653,4.112438,-122.8198,-32.99625,-24.48879,54.35472,-12.4842,-18.22034,-125.5787,-58.36955,8.275957,3.572278,10.20651,5.780703,-32.34978,-7.974323
0,208,-6.588149,-25.9344,11.00818,15.2894,6.296923,-119.3102,-33.50154,-24.14932,55.5015,-10.77747,-16.14388,-125.5392,-55.48099,15.46603,5.488674,13.8316,11.85038,-32.27615,-5.665229
0,209,-3.314295,-21.72185,13.14393,16.23641,8.735732,-112.7241,-26.49637,-18.59962,59.04482,-6.795432,-10.19207,-118.2579,-51.68866,16.468,6.556486,12.54202,11.13055,-25.81202,-2.752568
0,210,-13.06961,-32.50547,3.272905,6.560015,-1.738497,-124.2147,-40.73254,-30.65749,47.56599,-18.19962,-20.97438,-132.7726,-61.9432,10.89698,-2.12382,7.226706,7.459214,-38.28209,-11.50756
0,211,-9.922766,-31.27654,4.505547,7.097346,-0.3615895,-121.0595,-36.65682,-27.75727,50.45281,-14.69897,-19.69812,-127.2187,-56.8817,16.08317,-1.745627,6.107682,12.68167,-36.08961,-9.313138
0,212,-5.046692,-25.94838,11.10968,8.372567,4.142455,-113.9982,-26.95394,-20.07297,56.70839,-7.937073,-12.36248,-116.5572,-50.55033,17.95431,2.49908,8.937197,12.75726,-28.61911,-4.812441
0,213,-20.85964,-40.09415,-1.119678,-3.332495,-9.427263,-129.7451,-44.71579,-36.71209,39.27349,-24.07772,-27.97764,-134.1925,-65.42969,4.793477,-9.528016,-0.9315069,1.979719,-45.89915,-18.74944
0,214,-20.84306,-39.14269,-2.094189,-3.673396,-9.865406,-127.4846,-42.07742,-33.95486,40.34481,-22.79139,-27.18638,-130.4827,-64.20661,3.5926,-11.87664,-4.672084,0.09792492,-43.61678,-18.85757
0,215,-9.757054,-28.63746,8.413256,6.889557,1.517443,-116.9076,-31.22101,-23.6995,52.1241,-11.26838,-16.73106,-118.8225,-53.64222,12.29684,0.7021356,8.540645,8.531115,-33.41826,-8.589667
0,216,-13.10667,-31.45754,5.277951,7.513824,-0.5071602,-122.5033,-39.68198,-29.19437,45.99704,-16.9243,-20.71047,-127.2696,-58.07468,12.37536,0.4557669,7.67797,9.277109,-38.53259,-11.0467
0,217,-10.63439,-29.53299,6.141139,8.017683,1.163793,-119.5085,-34.68927,-25.45197,48.75795,-13.75443,-18.17456,-122.3018,-54.30542,15.12821,1.211225,8.662801,11.7337,-35.64925,-8.757901
0,218,-8.397458,-28.07683,7.383098,8.463401,2.31456,-117.3691,-35.10274,-24.13259,49.60453,-13.09415,-16.14072,-122.2468,-54.41026,13.76559,3.928116,11.52367,12.69335,-35.00887,-7.58237
0,219,-12.69457,-31.52086,2.348563,6.155344,-1.803688,-121.8221,-41.00478,-28.52164,43.7687,-17.82165,-19.49125,-126.1692,-57.28822,12.99206,-0.6253893,7.804329,11.0109,-38.3514,-10.5063
0,220,-4.970754,-25.19594,9.510311,10.02441,4.514955,-113.505,-28.78747,-19.98562,51.71973,-9.268759,-12.13138,-112.9466,-48.9047,15.64746,3.320422,11.48953,13.4486,-29.43876,-4.389969
0,221,-14.45099,-33.70897,3.054348,1.856762,-3.113203,-123.4673,-37.04153,-28.28598,42.73949,-17.60857,-21.06502,-121.7519,-56.7695,7.995643,-2.766532,7.540491,6.258482,-38.9391,-12.15614
0,222,-29.97928,-46.86047,-10.0249,-9.938807,-17.16324,-137.4609,-51.35002,-41.80602,28.17005,-30.89188,-35.19022,-134.2531,-67.70325,0.1011673,-17.98772,-5.835747,-3.548835,-52.25601,-24.63579
0,223,-25.90939,-42.14705,-3.735149,-5.968039,-12.45188,-133.159,-44.48391,-35.99689,32.41027,-25.31294,-30.26836,-125.3231,-61.09861,3.82145,-14.16171,-1.351801,-0.6091376,-47.60061,-20.36643
0,224,-27.36303,-42.48083,-5.112831,-2.838574,-12.49198,-135.0701,-50.87406,-39.44618,29.05833,-28.1526,-32.52097,-131.1437,-63.14999,5.456864,-12.59687,1.90351,2.375267,-51.6358,-20.98308
0,225,-32.62792,-47.59083,-12.46841,-6.349865,-18.33615,-139.8751,-57.90465,-45.33354,21.18941,-34.93905,-38.72801,-137.3779,-68.18299,2.265314,-20.01161,-5.312554,0.04187504,-57.06054,-25.90086
0,226,-34.67227,-49.65029,-14.40388,-8.696044,-20.18634,-141.1381,-58.06577,-47.28625,20.75573,-35.17562,-40.52363,-137.1169,-68.03305,2.019282,-21.91865,-5.606454,-0.01108817,-59.55587,-27.4752
0,227,-31.06863,-45.1908,-10.39658,-0.6997077,-16.17149,-138.6946,-59.46236,-45.85817,23.03412,-32.80653,-37.44073,-137.4032,-64.54795,9.913817,-18.56377,-0.5497512,8.414321,-58.90236,-23.64497
0,228,-13.45595,-28.12228,6.193548,13.78787,0.211769,-119.6462,-37.79545,-26.29798,42.61454,-13.48648,-19.55754,-113.7014,-46.34339,22.68262,-4.456606,10.72532,18.51966,-38.85611,-8.061801
0,229,-9.870217,-24.3483,11.18788,14.6288,4.088214,-114.7275,-31.63701,-21.09718,47.97306,-8.736982,-14.81649,-108.0592,-43.88348,20.85906,1.062498,16.45629,16.12462,-33.57909,-4.889325
0,230,-19.78128,-35.08104,1.741834,5.036586,-5.820816,-126.1933,-44.23927,-32.97563,36.06991,-19.84986,-25.54013,-120.0884,-53.55101,13.3523,-7.252322,9.350253,10.4212,-45.15292,-13.98415
0,231,-22.03055,-37.33547,-0.3845768,0.9389336,-7.625566,-126.9774,-41.33464,-32.72451,34.45913,-20.1283,-27.59904,-116.416,-52.98169,10.14094,-9.263869,6.084921,6.899316,-45.64518,-15.97697
0,232,-14.44706,-28.1094,8.953035,11.28833,1.011801,-118.102,-37.13232,-25.76219,42.18929,-12.55249,-19.53633,-110.8903,-46.0528,19.34007,0.903205,18.1041,14.21065,-38.47751,-7.858518
0,233,-12.99218,-27.42781,9.551116,13.26728,2.113838,-118.8344,-38.3828,-25.97342,42.67044,-12.19928,-18.34683,-111.629,-44.74148,23.36206,2.488954,18.1585,18.33084,-38.37316,-6.545965
0,234,-12.65263,-28.59635,7.867626,9.4641,0.4940757,-116.9801,-36.07044,-24.94999,43.3167,-11.58289,-18.78959,-108.8533,-44.47234,20.90967,0.4311729,14.77807,16.40525,-37.23617,-7.370267
0,235,-14.38221,-28.9166,8.181609,10.23578,-0.1648141,-118.47,-40.49744,-27.94306,39.75279,-14.19196,-18.99696,-112.2143,-46.33524,19.89833,0.9805408,16.88954,16.83272,-40.68876,-8.484443
0,236,-15.21774,-28.69711,7.61924,9.311746,-0.6853314,-118.235,-38.38684,-26.88433,38.61026,-14.07672,-17.83825,-109.4006,-44.83911,20.68722,-0.6903403,15.82818,16.18025,-39.70657,-8.321694
0,237,-19.35433,-32.7716,3.451597,3.170445,-5.03264,-120.7778,-39.2514,-29.19362,34.92738,-17.35267,-21.36968,-109.5785,-48.66845,12.13041,-5.43702,8.886826,8.102836,-41.45815,-12.86435
0,238,-35.14859,-46.89349,-9.691398,-7.701287,-18.30108,-137.3289,-55.96553,-44.96237,19.80344,-32.08268,-37.35368,-127.1846,-62.21833,2.38485,-17.83753,-0.6999827,-0.5108778,-58.48906,-26.12954
0,239,-23.91351,-36.08961,-0.6791174,2.088756,-8.190948,-125.3725,-42.89445,-32.63504,31.60364,-20.64582,-26.45198,-113.6011,-51.62841,9.345929,-9.870041,5.087241,6.623161,-46.85181,-16.80964
0,240,-6.690423,-19.53777,15.45606,17.31784,8.493555,-108.7671,-26.73813,-16.03456,46.64786,-5.487924,-9.136187,-97.5326,-37.58948,21.24467,7.757512,22.77844,17.47656,-29.58931,-1.057462
0,241,-18.10903,-29.81712,6.1688,10.03053,-1.407261,-121.2937,-42.06384,-28.72421,31.8758,-18.83365,-20.93109,-113.2322,-48.56712,15.88952,-0.8600199,16.02636,12.82049,-42.65893,-10.43745
0,242,-16.11416,-28.03351,6.916931,11.50851,0.08918756,-118.4432,-37.59274,-25.64039,34.95942,-15.66191,-19.31774,-108.3807,-44.83652,18.91006,-1.160802,13.63107,15.18999,-39.99322,-8.921348
0,243,-14.61201,-26.81134,8.96572,14.60878,1.83374,-118.9758,-39.47906,-25.84471,34.78915,-15.6087,-18.72705,-108.9615,-44.68867,18.72181,1.032024,16.72838,16.69126,-40.24225,-7.812484
0,244,-11.58158,-23.53512,11.43839,19.15953,5.116029,-114.8454,-36.64993,-24.21075,37.34011,-12.43013,-16.07558,-105.7028,-40.37735,25.04689,3.671813,19.2471,22.1988,-38.01012,-4.708964
0,245,-6.48917,-18.14368,15.61443,19.76391,9.420977,-107.0873,-25.62039,-14.52002,43.5636,-5.650566,-8.986706,-93.68995,-34.17654,25.71729,7.432038,19.5054,20.1755,-28.04527,-0.04747522
0,246,-9.721504,-21.23539,15.04604,16.09461,6.492642,-110.9564,-31.84618,-18.14614,38.43632,-9.831543,-11.67695,-97.35387,-37.97465,21.2825,7.319861,19.9727,16.12195,-31.30386,-2.710087
0,247,-18.5117,-31.29789,4.285095,6.118236,-3.355009,-120.2765,-40.26445,-27.42525,30.40585,-18.43134,-21.68255,-106.6246,-46.49014,13.2557,-3.208343,10.06736,9.726415,-40.52959,-11.46786
0,248,-32.91304,-45.08374,-9.115372,-9.070845,-17.64497,-132.7515,-51.46764,-39.94157,17.18884,-31.51089,-35.46395,-118.6881,-59.83365,-1.884294,-18.2314,-4.080494,-4.724643,-52.83469,-24.88469
0,249,-35.38275,-47.6959,-10.31884,-7.735177,-18.98841,-138.3123,-59.53293,-46.45788,11.6688,-36.30301,-38.93721,-127.2638,-62.91903,-0.0169081,-17.93836,-0.1135465,0.08686456,-60.60428,-26.66772
0,250,-24.16849,-37.38517,-1.126562,2.280335,-9.259596,-128.4679,-49.99932,-35.17316,21.70576,-26.14275,-28.06493,-116.4837,-51.89836,12.16059,-8.972285,8.558241,11.47913,-50.30706,-16.29995
0,251,-12.10168,-26.72531,9.42531,11.45578,1.957249,-116.7201,-36.68133,-23.68201,33.20527,-14.86094,-16.54844,-104.3744,-41.29389,21.3641,2.432107,18.83423,20.00682,-38.59759,-5.740606
0,252,-16.21723,-29.81126,5.791319,10.02738,-1.397656,-121.0498,-44.44825,-29.31996,26.20233,-20.88452,-19.75924,-111.1727,-46.01619,19.38331,0.2238423,15.79294,18.16111,-42.97911,-8.998813
0,253,-8.771987,-22.19318,11.91878,15.20158,5.206645,-111.774,-32.76502,-19.41461,34.58975,-11.83661,-11.24662,-97.74973,-37.10119,23.14848,4.718882,20.52908,21.19807,-33.5218,-2.275527
0,254,-9.952568,-23.18425,10.54933,11.93753,3.815704,-111.026,-32.10701,-19.79703,35.09172,-11.87205,-11.35643,-96.51411,-39.26527,16.07898,4.072309,20.72838,14.72406,-32.85123,-3.81682
0,255,-16.27649,-29.53027,6.186707,6.717404,-1.750227,-118.3369,-39.14597,-26.33556,27.60592,-18.65912,-18.75802,-104.1775,-45.02589,12.05915,-0.8430462,17.26349,11.62928,-40.53523,-9.363988
0,256,-8.876416,-22.4338,12.26321,11.13004,5.209108,-110.038,-27.8555,-17.6071,36.59709,-10.1076,-9.689111,-92.42674,-37.9254,13.71679,5.686845,20.08077,12.37088,-30.51745,-3.274452
0,257,-13.52288,-27.2712,9.671456,8.173312,1.116344,-116.5695,-36.41592,-23.74794,29.81882,-16.46825,-15.6597,-100.4554,-43.80199,8.963986,3.09851,18.002,10.07256,-37.69339,-7.915523
0,258,-18.52933,-31.74943,4.025736,5.821755,-4.107397,-122.3923,-45.96657,-29.79677,23.50882,-22.79932,-20.74956,-108.3465,-49.14071,7.146971,-2.11984,11.66998,8.39659,-42.97861,-12.3301
0,259,-14.47663,-28.48512,6.712976,7.474986,-1.025517,-117.7362,-39.19403,-25.15481,27.96542,-18.59146,-16.66629,-102.6307,-45.45876,8.206005,-0.3376014,11.81324,10.19695,-38.8513,-9.614726
0,260,-16.93193,-29.18919,6.820656,9.191864,-1.734984,-121.2029,-44.55198,-27.72214,21.98369,-22.1933,-18.32013,-106.2842,-45.93869,11.1007,-0.1411005,14.0127,13.84377,-43.59423,-10.40805
0,261,-12.32437,-24.56181,10.43512,13.8819,2.94586,-115.3761,-37.64455,-22.23454,27.03436,-16.76788,-14.51661,-98.61359,-40.29931,14.9725,3.183824,14.40148,16.52853,-37.63383,-6.482591
0,262,-0.7971162,-14.13486,19.90628,21.71438,13.45577,-102.4701,-22.96125,-10.9653,41.24046,-4.013047,-2.284935,-83.63898,-30.24546,19.36578,13.40412,20.21909,19.8148,-23.88757,2.737597
0,263,-5.228934,-18.64725,16.41946,17.4978,8.756661,-106.9357,-30.92717,-16.21676,34.93156,-10.28761,-7.711251,-91.59305,-36.99229,13.20968,10.17444,18.32904,15.53714,-29.56081,-1.788409
0,264,-6.068429,-18.7152,15.49639,16.67942,8.526554,-105.601,-26.53407,-15.06098,34.50357,-9.78348,-8.363115,-88.71742,-35.96008,12.35927,7.742172,16.70356,14.07411,-29.04373,-2.306966
0,265,-0.04866319,-13.86546,21.66587,21.98062,13.99704,-101.9886,-23.05401,-9.918427,39.12874,-5.255858,-3.740387,-84.40413,-31.71149,15.87132,13.83485,23.22406,18.39425,-24.38326,2.796447
0,266,-14.50757,-25.20117,10.38938,15.06525,3.042402,-117.9618,-40.31607,-24.24578,21.82988,-20.81734,-16.74256,-102.4977,-44.35168,9.347532,3.796294,14.13348,12.36706,-39.87725,-8.479291
0,267,-29.20849,-39.38488,-5.007444,1.462023,-10.80233,-131.7062,-50.82718,-37.90555,6.91676,-34.63037,-31.27085,-114.2286,-56.70121,-3.937754,-11.90885,-2.845847,0.01301059,-52.859,-22.10102
0,268,-35.72269,-45.81174,-11.89556,-2.349306,-17.30825,-138.6177,-61.86337,-46.0869,0.3464266,-41.25964,-39.21919,-122.4464,-62.68076,-7.278925,-17.72868,-7.971506,-2.948263,-60.01863,-27.8413
0,269,-40.27541,-47.34155,-14.0629,-1.226957,-19.64834,-141.9251,-67.13692,-49.299,-5.507759,-44.92674,-42.46043,-125.5485,-63.37804,-5.031944,-20.71725,-9.425562,-0.942714,-65.39176,-30.28267
0,270,-39.37938,-45.14454,-11.40295,-1.864874,-18.12088,-138.2299,-59.50906,-44.42813,-2.248462,-41.00903,-39.59897,-117.37,-59.82175,-7.289006,-20.68987,-11.29814,-3.662759,-62.07808,-29.64318
0,271,-32.02075,-38.57291,-3.761216,5.929683,-10.5738,-133.0494,-54.30009,-38.87447,4.683728,-34.61879,-33.31427,-112.6705,-54.11663,-1.076646,-12.43416,-1.361133,2.994574,-56.71744,-22.90483
0,272,-40.08934,-46.41537,-12.62286,-1.387491,-18.5065,-141.0694,-61.62284,-46.68755,-2.993528,-42.18425,-40.99006,-120.1105,-60.87649,-6.802155,-20.96601,-10.84116,-2.584584,-64.02401,-30.20925
0,273,-34.32961,-42.48895,-7.749189,0.04798428,-14.67386,-134.3824,-55.80837,-41.66393,2.63059,-36.76482,-36.27197,-112.3454,-56.73012,-6.820207,-16.63754,-7.685193,-2.678901,-57.25904,-26.195
0,274,-29.99142,-37.11915,-2.676592,6.811548,-9.513998,-130.8855,-56.73288,-37.92618,4.494069,-34.53785,-31.72988,-113.0622,-54.10466,-0.6891003,-8.795667,1.204062,4.264081,-55.46325,-21.43432
0,275,-17.6919,-25.7335,6.382959,18.51111,2.072687,-119.9605,-44.30807,-26.66523,15.25126,-23.36422,-19.26559,-100.1983,-41.96423,11.66995,1.63974,9.540338,15.19478,-42.99919,-10.05599
0,276,-7.894393,-17.26509,16.23425,24.91184,11.13378,-110.7341,-33.09319,-16.8213,25.44243,-13.34956,-9.572036,-87.86017,-33.03469,16.45268,11.3371,17.63392,19.28212,-32.40731,-1.706921
0,277,-23.08035,-32.56275,2.197626,10.92723,-3.674963,-127.0457,-51.78841,-34.74904,9.456341,-29.12081,-24.01116,-105.3322,-48.17717,2.043251,-1.265258,5.561696,8.779275,-49.91331,-16.17988
0,278,-12.38748,-22.23307,10.83855,16.23619,4.793808,-114.2892,-36.62284,-20.83487,22.44612,-16.55423,-10.68443,-88.4253,-36.65952,8.215566,5.68134,10.54591,13.20022,-36.17741,-6.824253
0,279,-14.57565,-26.2367,8.260441,10.20044,1.468243,-115.9002,-37.81719,-22.57228,20.04525,-18.54242,-15.0475,-88.53373,-39.17599,2.031083,3.686602,9.286534,8.395963,-38.27998,-9.758527
0,280,-24.02534,-36.03865,-0.7826746,1.701214,-8.028683,-125.8473,-50.1504,-33.18747,9.073342,-28.91182,-25.82467,-99.45098,-48.59104,-5.894575,-4.775263,1.083674,1.603616,-48.24514,-18.56315
0,281,-18.6385,-32.41698,3.73782,2.692049,-3.942724,-120.4204,-40.94189,-27.49206,16.43817,-22.49304,-20.58687,-91.18831,-43.60258,-5.004035,-1.434749,2.16272,2.648902,-42.24561,-14.95661
0,282,-19.17926,-32.89463,3.780924,4.217133,-4.002403,-122.9928,-45.55906,-29.82122,13.5392,-24.94075,-21.59084,-95.69052,-45.27249,-4.059952,-0.3405586,5.76908,4.953635,-45.1828,-14.99619
0,283,-12.6305,-26.39573,7.938437,11.75978,1.3584,-117.8482,-43.90109,-25.15213,17.87962,-20.47803,-13.97726,-91.17038,-40.13934,1.977032,4.680228,10.12386,11.51657,-39.43581,-9.072856
0,284,-15.36078,-28.31869,6.73035,8.328197,-0.5537091,-119.0371,-41.52253,-24.73607,18.31548,-19.73811,-15.81197,-87.82859,-39.43314,-0.7462429,2.148802,7.263106,8.136761,-40.46425,-11.2428
0,285,-18.02323,-30.23873,5.809738,9.689125,-1.731878,-122.5134,-46.61377,-29.45858,13.61163,-22.99995,-19.37684,-92.00102,-40.73461,0.9567862,1.114707,9.567409,10.35555,-45.36939,-12.68809
0,286,-18.66403,-30.23165,3.382926,8.622057,-2.962141,-122.2404,-45.78402,-28.209,13.57173,-22.88079,-18.35926,-90.02705,-40.09756,0.7250395,-1.377509,5.271859,9.401562,-44.09149,-13.12088
0,287,-23.53606,-34.60162,-1.667454,3.484561,-6.941298,-125.908,-46.78942,-31.11605,9.15693,-26.2992,-22.92533,-90.87382,-43.00632,-4.819284,-5.500926,0.6601409,3.642549,-47.05487,-17.269
0,288,-24.74314,-36.43338,-1.614998,3.805609,-7.480656,-129.5197,-51.81828,-34.1449,6.646737,-28.52085,-25.79427,-94.98869,-44.55138,-4.485647,-3.922534,2.942095,5.65465,-51.14297,-18.33824
0,289,-30.2342,-42.05957,-6.510308,-0.546269,-12.83216,-135.6396,-53.96178,-38.39059,2.026711,-32.58255,-32.73668,-96.84374,-47.55652,-9.165609,-12.90831,-4.878338,1.35697,-56.05783,-23.59075
0,290,-27.51742,-38.45987,-2.714478,3.262909,-9.127203,-132.7134,-52.1516,-36.44217,3.641114,-30.54191,-28.73081,-94.54839,-45.74424,-7.592804,-8.116495,-0.3126529,1.66518,-52.27982,-20.49191
0,291,-35.80551,-45.02162,-10.84042,-0.004250607,-15.9978,-141.3695,-64.62182,-46.42752,-6.096011,-39.91497,-36.01969,-106.5672,-53.75865,-10.64213,-14.24495,-6.802715,-1.188021,-61.23095,-27.17
0,292,-23.29777,-33.19093,-0.5565914,12.09752,-4.158676,-128.6914,-49.67812,-33.35233,5.677043,-26.91933,-24.91939,-89.89477,-39.58499,0.6777918,-5.191498,2.909515,9.879115,-49.18716,-15.81963
0,293,-14.51889,-23.00139,11.24376,22.26535,5.965219,-119.5929,-42.09612,-24.3322,14.14772,-17.69634,-14.56733,-79.92496,-30.41824,8.140902,6.661161,14.57935,17.18563,-41.37714,-7.190355
0,294,-15.88762,-23.55257,9.608608,23.35512,4.7073,-120.7033,-44.65076,-25.76128,14.1164,-17.85713,-15.72016,-79.95764,-30.03217,9.328661,4.124026,11.91929,17.80129,-42.36613,-8.093534
0,295,-8.58259,-16.3171,17.29696,25.44992,11.08913,-110.8535,-31.72935,-14.39086,24.78555,-7.521107,-6.480307,-64.99308,-21.32911,11.63266,10.65432,15.45697,17.19115,-30.63861,-1.564484
0,296,-0.4783903,-8.40752,27.2277,31.81483,19.41173,-103.3384,-24.35825,-6.891911,33.25304,0.5258665,2.767118,-57.03975,-15.09056,14.06658,21.2264,27.10871,21.19693,-24.03643,5.450656
0,297,-2.688217,-10.55805,24.94936,27.01944,16.68668,-104.1708,-23.50194,-7.258594,30.7248,-1.348289,1.777627,-56.63988,-16.89689,9.742428,18.24398,24.49618,16.9519,-24.76981,3.334619
0,298,-1.234155,-11.29093,24.67461,23.8165,16.09034,-103.1122,-21.8003,-6.017975,31.36591,-0.8971696,2.060084,-54.05049,-17.44749,5.526225,17.98114,23.78816,13.00295,-21.85867,3.545516
0,299,-15.57095,-24.41161,12.29494,13.74113,3.214405,-118.4654,-40.04232,-22.70766,17.32269,-15.40018,-11.41155,-72.72373,-31.4608,-3.982074,6.474811,13.92719,5.376768,-38.24348,-9.100348
0,300,-25.50965,-34.0965,2.035124,4.374162,-6.479908,-128.4541,-49.01351,-32.0772,6.335847,-24.74045,-20.55404,-79.77055,-38.0588,-9.312759,-3.417252,2.886127,-0.4207605,-47.01168,-17.53725
0,301,-27.21974,-36.63026,0.3251961,0.7995493,-8.547628,-131.4188,-50.64201,-32.55444,4.64525,-25.48585,-22.38832,-78.64188,-37.38326,-9.130251,-3.893613,2.930611,-0.5560457,-48.52327,-18.47399
0,302,-25.00107,-35.49004,1.810313,3.688028,-6.7344,-131.0541,-51.57958,-32.58278,5.843053,-24.07352,-21.53527,-78.69672,-34.65421,-3.232522,-1.345448,6.303026,6.162439,-49.22339,-16.34845
0,303,-18.8137,-31.89891,6.081427,3.776147,-3.175356,-124.2313,-40.96919,-25.84794,13.27621,-16.80818,-16.23334,-67.36152,-27.72093,-0.5914661,0.2876855,6.385981,7.815681,-41.43769,-11.96564
0,304,-27.33124,-40.15948,-0.1210455,-5.548314,-11.18302,-131.7142,-47.56277,-33.35523,5.766847,-24.00034,-24.61492,-72.97605,-35.44541,-11.4599,-7.165599,-0.7997987,-2.716532,-48.31589,-19.99594
0,305,-20.89774,-33.08933,6.172948,2.406939,-4.213263,-125.0714,-43.01024,-27.73154,12.5626,-17.52241,-17.63829,-67.91845,-29.09953,-3.325697,0.8069372,6.315648,4.704641,-42.83957,-13.65531
0,306,-14.95849,-27.86143,10.03558,3.688055,0.4834709,-117.7849,-32.78433,-18.39887,20.66529,-10.0828,-11.1447,-57.79142,-23.34463,-2.649328,5.415748,9.1597,4.741675,-34.40049,-8.792438
0,307,-19.57406,-33.09247,5.963409,0.4967205,-3.367336,-124.646,-40.80284,-26.06388,12.87257,-16.77691,-16.46026,-65.2263,-28.82832,-6.874824,3.512192,8.470322,2.353624,-40.98007,-12.90868
0,308,-20.69136,-32.62151,4.850974,2.450484,-3.486052,-125.7674,-43.02418,-27.48407,9.017879,-19.1011,-15.79084,-67.14973,-28.97424,-4.301198,2.87188,7.997395,4.484702,-42.23391,-12.85441
0,309,-30.36545,-39.92492,-2.225718,-5.572128,-11.34959,-133.5987,-48.13715,-33.15094,1.191216,-25.81331,-23.19391,-71.05914,-34.60117,-11.66842,-5.734458,-1.891009,-4.294298,-48.77407,-20.65895
0,310,-23.18057,-31.64071,4.582451,5.120017,-3.411919,-126.9131,-45.14535,-27.63984,5.887336,-20.38339,-15.71304,-67.38528,-28.11804,-1.881146,2.750226,8.383036,5.716553,-43.9453,-13.16451
0,311,-4.980301,-16.75632,19.54072,17.26248,11.69621,-109.7384,-26.70855,-10.2725,24.98996,-2.103413,1.040744,-46.44733,-10.52638,12.77607,17.82223,19.85658,19.00143,-25.79562,2.195611
0,312,-7.074892,-19.80565,16.18272,9.896219,7.812506,-109.4607,-25.87978,-10.74154,23.92264,-3.10786,-0.1361555,-43.68773,-12.9326,3.194805,14.44484,15.2907,11.3197,-26.11073,-1.182809
0,313,-5.406227,-17.60162,18.73217,13.01511,9.693752,-108.2772,-28.007,-8.569719,24.03317,-2.650407,0.6388926,-44.63835,-12.24991,4.827873,17.81671,19.13295,14.68697,-26.60914,0.341458
0,314,-4.196568,-17.1157,18.88136,12.65862,10.38453,-105.6204,-22.73527,-7.121867,27.79695,0.4081359,1.232075,-39.77755,-10.08152,4.43907,16.52573,15.60449,13.07723,-23.49405,0.6718022
0,315,-13.34471,-25.24336,11.55088,3.931615,2.125873,-113.8439,-31.80743,-15.64723,18.75787,-8.647169,-6.621003,-49.02036,-19.76308,-6.001822,9.651896,7.438926,2.718843,-30.92432,-7.690646
0,316,-13.31389,-26.06882,8.29954,5.965374,1.865488,-116.3287,-37.68715,-19.08085,15.42603,-11.51596,-7.442407,-54.65065,-20.90046,-2.696474,11.12948,8.837648,8.945917,-34.9841,-7.741273
0,317,-11.53585,-26.93524,8.26288,3.690757,1.023539,-114.8671,-34.33268,-18.57959,16.72154,-10.20727,-7.602068,-51.53676,-19.07079,-1.558671,7.93204,6.869952,10.08103,-33.49762,-7.190611
0,318,-25.76853,-40.86846,-3.784514,-8.97562,-12.80329,-129.1848,-50.77089,-33.54188,2.089714,-24.11132,-22.35555,-65.85017,-31.66829,-12.03254,-4.994892,-4.481858,-0.2414622,-47.44252,-19.75052
0,319,-38.6308,-52.50064,-16.52725,-18.70827,-24.65732,-141.4551,-63.88505,-45.89429,-11.72944,-36.41926,-35.01139,-77.67343,-41.49791,-19.7164,-17.21142,-16.29778,-6.830606,-60.56708,-30.85736
0,320,-31.12952,-44.49339,-7.453248,-11.66532,-16.57211,-132.0827,-51.13446,-36.1288,-2.744149,-26.53094,-27.80628,-64.4296,-31.11651,-11.86407,-11.18408,-10.26304,-1.3687,-51.66713,-23.53399
0,321,-22.08405,-33.10033,2.367419,0.4112386,-6.052673,-120.8911,-43.569,-26.96222,5.885305,-17.43829,-17.03727,-55.84872,-22.47845,-3.115634,0.2587661,2.116063,6.391294,-42.75123,-14.19204
0,322,-18.98806,-28.7957,4.696491,2.644112,-2.970417,-116.5751,-38.35809,-20.85424,9.817047,-13.39358,-11.60227,-50.3639,-18.68139,-1.016617,3.164171,4.710997,7.683342,-37.93138,-10.76105
0,323,-19.62028,-31.37263,2.928744,-1.74345,-4.634681,-118.4422,-37.36497,-21.26888,9.621174,-14.41913,-13.40769,-50.85835,-21.12971,-6.231183,1.9785,2.848625,3.070596,-37.70145,-12.33065
0,324,-14.69724,-28.17673,6.012216,4.345468,-0.8005067,-116.9938,-39.84723,-21.70975,10.57671,-14.15272,-10.40739,-54.82425,-20.97318,-1.687216,6.486233,9.388631,9.700646,-36.75431,-8.488448
0,325,-15.28868,-28.56486,4.077909,4.162527,-1.650641,-117.1021,-40.10263,-22.99034,9.07257,-14.84093,-9.798922,-54.02098,-20.17591,-0.3331634,4.778633,5.995906,10.94129,-37.14031,-8.978318
0,326,-20.78252,-34.26633,-0.7727299,-2.284692,-7.022051,-121.7667,-44.09537,-27.59353,4.52244,-19.06757,-15.7508,-57.98239,-23.91194,-3.921984,0.2497337,1.772814,7.638155,-42.8063,-13.9186
0,327,-23.93283,-36.55082,-2.298136,-2.099847,-9.148802,-125.3355,-49.97249,-31.91485,-0.6706201,-22.96386,-19.29894,-62.6953,-25.65856,-1.740909,-1.50119,1.057007,9.509271,-47.36583,-15.87806
0,328,-20.60107,-32.94415,0.5849067,-0.5386009,-6.192929,-119.9621,-41.99938,-26.04663,5.388207,-16.06754,-14.87648,-51.12127,-18.12724,1.574618,0.03887474,2.932689,11.04978,-41.64307,-12.29244
0,329,-15.02796,-28.5152,5.444748,1.693597,-2.037974,-113.2608,-36.88321,-21.18474,11.209,-10.524,-9.615322,-44.38329,-14.01839,1.947462,5.249343,8.949747,12.3288,-36.2475,-8.068303
0,330,-14.48342,-28.38004,6.922445,1.763423,-1.777702,-112.1264,-37.88041,-22.01265,9.795681,-11.71882,-10.1749,-46.88011,-15.28389,2.6246,6.196558,11.09968,12.85189,-36.59151,-7.725965
0,331,-9.854749,-23.47641,11.48871,4.071774,2.356832,-103.3594,-28.65886,-15.03666,16.43355,-5.159609,-6.084503,-38.15672,-9.927088,5.140702,9.142677,13.79418,13.23793,-29.52444,-3.691556
0,332,-12.64854,-22.88637,11.75525,6.612824,2.078609,-104.3639,-34.58133,-18.17118,10.79566,-9.34079,-6.551318,-43.95199,-13.10204,5.143556,10.37111,16.27139,12.88841,-32.69244,-4.753372
0,333,-19.50547,-27.92963,3.305502,3.563657,-3.720545,-109.0059,-42.47393,-25.55625,3.785347,-15.87563,-12.47987,-51.89046,-18.64967,2.099565,4.545012,10.06758,11.21546,-40.45916,-10.64112
0,334,-12.55601,-22.31545,7.419562,6.385906,0.9286947,-99.6236,-34.45293,-18.48046,12.00199,-8.141891,-5.896274,-42.15867,-11.95131,5.410865,8.937764,13.00513,14.91976,-33.17811,-5.499159
0,335,-17.02904,-24.27177,6.029278,5.160029,-1.981174,-101.3442,-41.15189,-21.9177,5.633477,-12.65399,-9.545799,-46.86901,-14.85548,4.754887,7.852382,12.98027,14.21798,-38.30178,-8.442165
0,336,-28.08597,-35.80899,-4.14833,-6.592214,-13.79767,-110.1897,-50.17241,-32.89865,-4.802337,-22.1004,-22.044,-54.22913,-22.76367,-3.268744,-5.550208,0.1382773,6.355575,-48.8507,-19.01115
0,337,-38.11237,-45.48098,-13.04558,-17.46343,-23.73283,-117.5867,-57.3824,-41.70614,-12.77556,-29.54588,-31.94813,-59.26809,-30.19056,-14.01344,-15.57934,-9.937128,-3.818653,-57.29594,-28.53225
0,338,-22.42432,-30.57751,1.893894,-1.683203,-8.600378,-101.9308,-46.12816,-29.88754,1.562938,-15.9199,-17.15775,-48.17395,-17.66849,0.5489354,1.011227,7.094078,10.26094,-44.24956,-14.41987
0,339,-6.571485,-16.10996,14.57776,9.15845,4.612812,-83.67212,-27.72402,-12.65592,17.55776,-1.050516,-2.30549,-30.99904,-5.566967,6.786092,12.17492,15.18419,16.87222,-27.28732,-2.078892
0,340,-10.41727,-19.16983,10.32989,6.156806,1.765211,-86.33319,-32.16695,-16.71181,12.03059,-5.838306,-5.772635,-36.10236,-10.58347,0.8798153,11.20474,14.7853,12.5259,-31.29629,-5.49171
0,341,-10.96282,-17.79941,10.98019,9.803828,2.063262,-85.04539,-36.7999,-18.63722,10.08192,-7.680981,-6.064334,-41.61548,-11.78425,5.322922,11.92495,16.14554,17.06993,-34.07795,-5.432509
0,342,-13.11648,-19.79793,8.044989,4.9788,-0.9285603,-84.41039,-35.36971,-19.07541,9.402467,-8.072208,-6.654343,-38.93518,-12.19587,2.100937,8.355062,10.43478,12.77632,-33.57088,-7.680177
0,343,-29.82589,-34.58826,-6.443379,-8.845031,-16.9422,-98.94146,-54.85352,-35.80693,-8.10488,-24.24139,-22.08973,-55.02518,-26.71352,-10.96806,-6.572866,-3.619786,1.137272,-50.16753,-22.51896
0,344,-34.53237,-37.81915,-10.25213,-9.971257,-20.53044,-100.7953,-58.84648,-41.34648,-12.82968,-27.3318,-26.78681,-57.24469,-27.29951,-9.096423,-11.26258,-8.296017,2.803149,-55.94442,-26.20394
0,345,-28.07985,-33.57159,-5.648465,-8.853608,-16.22825,-93.95785,-48.76361,-33.48452,-4.596776,-19.66404,-21.73912,-46.9232,-20.7614,-7.158502,-8.079772,-4.973484,4.940184,-48.86715,-21.43876
0,346,-29.73014,-33.99969,-4.85415,-9.547529,-17.33784,-93.81873,-53.4649,-35.33607,-7.022813,-21.6972,-22.80987,-50.12014,-23.2692,-9.742579,-6.773335,-2.468551,3.667759,-51.77414,-22.8714
0,347,-21.21731,-24.22239,2.372817,-0.3122848,-8.765598,-81.89957,-42.70014,-25.4251,1.350473,-12.87332,-14.1352,-40.37841,-14.51897,-0.8789825,-0.023244,4.745014,10.68387,-42.25223,-14.61463
0,348,-4.591238,-7.603293,17.83806,13.33067,7.218078,-62.80195,-23.71455,-9.036577,20.20486,4.017045,4.115581,-23.36007,-1.64844,6.936911,15.92224,18.51186,17.73,-24.38992,-0.5410224
0,349,-12.74013,-16.28075,9.320927,6.143404,-1.221007,-71.69412,-38.34838,-19.84616,9.52259,-6.770508,-5.35004,-37.58658,-12.28341,-0.2124679,10.70063,13.04818,13.04961,-34.86048,-8.491968
0,350,-8.31846,-12.37257,11.81339,8.369837,1.769954,-65.74514,-32.86322,-15.3926,12.3725,-2.526361,-0.2006945,-30.07687,-6.310286,5.304832,12.82202,14.4889,17.46293,-29.65082,-4.349765
0,351,-7.92316,-13.28335,12.33322,5.405075,0.723946,-63.5785,-31.8712,-16.21064,11.55073,-2.300848,-0.5379023,-27.89077,-5.5698,4.525661,12.19051,16.50009,17.10746,-29.81856,-4.397933
0,352,-22.33105,-25.88899,-0.09546422,-5.850646,-12.80421,-76.42941,-49.33755,-29.67395,-3.735146,-16.09104,-14.69479,-42.51212,-17.18061,-4.15871,0.2665733,6.426891,10.23273,-45.61222,-16.75647
0,353,-23.39989,-27.01047,-2.404253,-8.94606,-14.88528,-74.17623,-46.48492,-29.31343,-2.802059,-14.60164,-15.29173,-37.31879,-15.06945,-4.7467,-3.400889,0.572641,8.600811,-44.62082,-18.14128
0,354,-13.63141,-15.15653,8.348295,1.283891,-4.238309,-60.31978,-34.93574,-17.79729,8.222147,-3.189623,-3.760581,-24.17359,-5.034685,1.531157,7.701695,12.17485,13.73555,-33.54605,-8.702402
0,355,-13.45299,-14.07811,8.228121,0.9413806,-4.213267,-57.79737,-35.13273,-17.15624,8.657146,-3.254655,-2.329595,-25.19019,-6.407218,-0.158339,8.654249,13.15926,12.0898,-32.70094,-8.623355
0,356,-14.26544,-15.36159,7.765018,-3.784365,-5.956987,-55.68374,-31.6756,-16.33384,7.907508,-3.658106,-3.09335,-22.90901,-7.539104,-4.472009,6.353241,9.688928,6.751001,-31.04463,-10.0853
0,357,-19.6033,-20.96321,3.382466,-7.422107,-11.18138,-61.69288,-41.82331,-24.59298,0.8685347,-10.42832,-9.585308,-32.35131,-13.88841,-8.929178,2.941134,8.716405,5.840593,-40.34227,-15.43613
0,358,-18.52508,-20.60002,2.385172,-5.697066,-11.83612,-60.33277,-44.29094,-26.01126,1.757148,-9.756985,-9.166588,-32.75523,-11.89464,-3.166485,1.100263,6.77681,11.82607,-41.21176,-14.77577
0,359,-7.165753,-9.852817,10.8498,1.100967,-2.145267,-44.78338,-30.0022,-13.65098,15.07094,2.989155,2.908373,-18.05274,-0.6998536,4.596597,11.43481,13.92997,18.83999,-28.90223,-5.313225
0,360,-10.41747,-12.45397,9.51281,0.5563063,-4.344773,-48.70701,-36.89574,-17.98856,8.529134,-2.005545,-1.39805,-23.91839,-4.184438,3.665683,10.64816,16.19924,18.38539,-33.60614,-7.389559
0,361,-4.331479,-4.554737,16.09282,7.224699,2.2856,-39.18798,-27.35744,-9.044798,17.61139,7.300426,6.280843,-12.19415,4.84664,9.709038,16.17643,20.40468,23.24051,-26.22313,-1.460042
0,362,-2.699196,-2.37377,18.97226,5.385044,3.558836,-33.45976,-21.78953,-4.953545,21.30136,11.16453,9.244715,-4.417801,6.767786,4.331071,18.11558,20.7747,17.47533,-21.52421,-0.7063867
0,363,-15.5747,-13.82306,7.558195,-5.114229,-8.312356,-44.57845,-36.42338,-18.59402,6.247654,-2.842365,-3.192405,-19.05096,-6.882884,-9.235096,7.138416,11.41196,6.2005,-34.63477,-12.56073
0,364,-10.29593,-8.153753,10.58096,-0.9696667,-3.795937,-35.6064,-28.05417,-11.83182,12.62625,3.136371,1.848558,-11.37348,-2.135161,-6.98779,9.723543,11.34111,7.286456,-27.10675,-8.487059
0,365,-5.827041,-2.711105,16.59962,4.689281,1.918536,-29.25214,-24.28392,-8.466642,15.57356,6.532878,6.475647,-9.487185,0.8077869,-2.937965,17.16458,18.86706,11.40874,-23.98851,-4.216942
0,366,-5.934999,0.1567291,17.4318,10.68259,3.956445,-28.35588,-27.49611,-7.943411,15.33442,6.704798,7.401565,-11.95031,2.132402,3.446383,19.80182,21.53847,16.61729,-24.82355,-2.637541
0,367,-5.525134,0.2907773,16.43699,9.782091,3.080443,-26.38275,-24.69014,-6.013497,17.36937,8.927759,7.517218,-7.015522,4.76292,3.554352,16.57377,18.05381,16.83365,-23.57338,-2.765492
0,368,-10.44138,-3.180565,13.39328,7.800725,-0.3459862,-30.35862,-31.89124,-12.95503,11.07734,4.071979,4.373563,-11.10967,1.226463,0.05777661,14.87787,15.46268,14.10815,-29.00734,-6.810811
0,369,-3.783631,3.715238,20.32852,15.08943,5.977811,-21.09275,-25.17742,-6.980426,18.12613,11.62395,10.09579,-2.573021,9.296813,7.83464,20.2681,19.55923,21.90339,-23.76825,-1.230243
0,370,6.639696,12.00451,29.35929,18.25878,13.42018,-8.178603,-10.55763,5.850625,31.43919,23.53063,19.24976,12.03214,18.42139,10.25443,26.71726,24.01691,24.84636,-12.46851,6.140892
0,371,-1.311623,4.887568,22.41509,11.25814,5.705049,-13.78256,-21.20021,-2.932276,22.27273,14.87121,11.0403,3.210215,9.004877,-1.040974,20.62901,18.86406,15.65455,-20.36443,-1.682968
0,372,-7.347089,-0.5841575,15.73377,6.767056,0.09875046,-18.1846,-25.98099,-9.148288,16.23859,8.945868,4.501988,-2.873665,3.3125,-5.930614,13.74309,10.7536,10.83202,-25.67616,-7.489447
0,373,-17.78547,-9.940182,6.028193,-2.632768,-9.692715,-27.31391,-34.61776,-18.50258,5.405325,-1.61348,-5.143658,-13.54692,-7.006035,-16.14978,3.105716,-1.04849,1.785021,-35.42525,-17.3867
0,374,-14.34546,-4.974326,8.953474,6.041132,-4.70621,-23.90181,-37.19197,-17.41387,5.282568,-0.6137419,-2.035138,-15.37452,-4.405982,-8.314714,10.11058,5.810023,10.16991,-34.76756,-13.25481
0,375,-2.573904,6.076727,17.67093,16.36063,5.932298,-9.865828,-24.6768,-6.423129,16.91686,11.1112,8.768325,-2.522319,7.075216,1.971918,20.06684,14.34139,20.42834,-23.8585,-3.181262
0,376,-10.38376,-1.629451,10.36643,9.292101,-1.805977,-15.82736,-32.41788,-15.20845,10.23044,4.883469,0.2812704,-7.77491,1.221034,-4.879111,12.25145,7.437836,14.08544,-31.34266,-10.5017
0,377,-13.88434,-2.27812,8.668961,9.399361,-4.171451,-16.39688,-38.3362,-18.12101,6.904171,2.374918,-0.7864646,-11.41465,0.06689438,-1.941574,10.988,6.90884,15.40975,-34.6362,-12.10417
0,378,-7.987512,3.919822,13.69455,11.57294,1.188651,-6.519912,-26.19596,-8.766187,13.74278,10.09801,6.263442,0.7737131,7.748746,1.491538,15.69039,8.12673,17.14097,-25.96469,-7.007538
0,379,-14.34743,-1.765763,10.03736,3.778339,-4.943945,-9.720076,-31.4557,-14.56591,7.138719,4.388698,0.5884696,-3.921704,1.862432,-5.96266,11.18429,4.830615,9.98098,-31.70597,-12.86922
0,380,-19.33373,-6.894107,5.080969,-0.1509045,-10.39357,-13.66204,-39.28502,-21.89797,1.206428,-1.789836,-5.525805,-12.08654,-4.501365,-10.3178,5.751731,0.3629521,6.8647,-38.01347,-18.04345
0,381,-2.770804,9.279998,19.86251,12.7346,5.136128,6.541506,-18.53471,-4.450592,18.84571,15.20359,11.16558,6.45611,10.33404,0.8370897,20.40972,13.22063,16.79189,-20.68378,-3.800457
0,382,-6.09318,8.402539,18.1357,11.47802,2.906064,5.498848,-25.04881,-6.397625,14.71519,11.36346,9.815915,-0.03774874,6.524829,0.4832747,21.20801,14.60265,16.20422,-24.31459,-5.678241
0,383,-27.23526,-11.55629,-2.790086,-5.632553,-17.48462,-15.57952,-47.55935,-28.12918,-8.249733,-10.05015,-11.07681,-22.02968,-11.55448,-12.66212,-0.3355342,-5.72606,4.259883,-45.72507,-24.29307
0,384,-27.9889,-13.28324,-4.945475,-7.593482,-19.53316,-15.27285,-47.75111,-29.44319,-9.083932,-10.15415,-13.16013,-20.22542,-10.60242,-12.15613,-3.721271,-7.217812,4.588556,-46.42284,-25.11377
0,385,-36.99731,-21.2414,-12.34653,-13.46233,-27.80917,-22.54147,-61.53946,-40.35056,-20.84143,-19.93225,-22.83521,-30.95698,-17.97551,-16.17708,-9.701812,-11.50834,2.676313,-58.28883,-32.89742
0,386,-28.64187,-13.49074,-7.702494,-6.888991,-21.0164,-12.22048,-51.7237,-32.08898,-10.62856,-10.70378,-14.30886,-21.12507,-9.618329,-9.362788,-4.372073,-8.863121,9.979665,-50.32309,-26.33217
0,387,-11.2277,4.005379,10.76881,7.437391,-3.91896,8.01088,-31.31585,-13.58031,8.892606,8.080257,3.664977,-0.6445203,6.484503,2.222157,13.01563,8.354324,18.94564,-31.27266,-10.55269
0,388,-4.140789,12.23664,18.45311,16.56703,4.122873,15.49802,-27.68402,-7.207955,13.0154,13.08311,11.09979,3.778841,11.57033,7.87318,22.92023,17.80917,24.70691,-25.05411,-3.635315
0,389,-6.083093,9.601585,15.36753,10.93639,0.7813346,15.98441,-25.36856,-6.494078,11.99243,10.94191,7.891547,2.206481,7.373034,1.571698,17.74179,10.96904,17.51201,-24.09739,-6.638452
0,390,-8.891995,6.929735,14.15216,7.924947,-1.321649,14.29254,-29.26811,-9.908081,7.317316,6.86342,4.329123,-2.545554,2.883735,-3.040658,18.0031,11.1401,13.58479,-27.26435,-9.405321
0,391,-11.18244,5.630296,10.46742,8.756265,-3.20867,12.24282,-35.91579,-14.82618,3.053677,2.87975,3.299982,-9.529155,0.1813724,-0.6174211,17.24514,10.3743,17.2345,-32.04,-11.0332
0,392,-5.927576,9.715043,13.80619,10.82801,0.4991083,18.59929,-27.73555,-8.600291,8.389256,8.963692,8.074306,-0.107244,7.057456,3.742687,19.5357,12.35492,21.37576,-26.4023,-6.679449
0,393,-11.88114,5.250834,11.17915,7.573195,-4.18608,13.95026,-35.64941,-15.06425,1.433007,2.966986,2.409276,-6.073667,1.671332,-0.9893372,15.79905,8.592239,16.40623,-32.06319,-11.73486
0,394,-18.77539,-1.448108,3.727637,1.084124,-11.71126,8.778478,-43.32795,-22.6163,-4.141205,-3.150524,-4.294014,-13.42811,-4.17154,-4.701473,8.016784,-0.6954551,13.32434,-39.4908,-18.53991
0,395,-20.94057,-2.724893,1.94007,-3.024933,-13.73248,10.7012,-39.23671,-22.22207,-3.95165,-2.9424,-5.190651,-10.40063,-5.056214,-9.615217,4.577296,-5.735754,7.088274,-38.37313,-20.87185
0,396,-21.43377,-3.283153,3.523962,-2.228554,-13.88498,10.10195,-42.25888,-24.42835,-7.477814,-5.171062,-7.31953,-13.46259,-6.210984,-9.211069,4.992998,-1.714391,9.044545,-41.67702,-21.23015
0,397,-6.333296,12.81897,16.63993,13.00243,1.420666,27.94513,-25.25329,-8.178742,7.628508,9.67713,8.295721,2.003887,7.471128,3.450788,19.4638,9.793996,19.74388,-25.43093,-7.436519
0,398,-7.263965,11.75971,12.97037,9.319913,-0.2333935,29.22895,-24.74271,-8.073255,8.898489,8.959381,8.051091,0.04311308,3.292475,-3.843351,18.93992,7.873682,13.13976,-24.31307,-9.276863
0,399,-12.67188,4.418361,6.976247,5.105201,-5.872725,20.06532,-35.19697,-17.3456,-0.1203445,0.05497575,-0.6977028,-12.89725,-4.647029,-7.131265,14.42576,7.098694,13.09142,-34.2882,-14.61607
0,400,-14.07831,3.534538,5.497637,3.596968,-8.029699,19.97219,-36.0003,-16.86967,-1.898621,-0.6045651,-1.770384,-11.23008,-3.497069,-5.803988,10.92667,2.660236,14.00714,-35.16921,-15.74553
0,401,-22.21616,-3.731547,-0.0363495,-2.649404,-15.09425,11.7723,-44.72109,-25.38542,-10.76997,-8.050491,-9.167455,-17.04501,-9.305879,-11.32905,4.30698,-3.075072,7.561173,-42.13613,-22.29572
0,402,-24.07111,-3.692739,-0.832953,0.5400361,-15.1088,9.082696,-49.03955,-27.78198,-14.44805,-10.16978,-10.1179,-19.70455,-9.070146,-7.724725,4.348852,-0.5464314,10.98901,-45.22306,-22.30809
0,403,-15.60115,4.003113,5.777831,5.831262,-7.731019,18.03421,-36.43863,-18.02984,-3.702085,-0.4324956,-0.8006969,-7.584633,-1.000033,-4.420668,9.888043,3.016559,13.72907,-34.98949,-15.43892
0,404,-15.62548,1.894317,4.786916,3.701119,-8.725368,16.16307,-36.95651,-19.66503,-4.268969,-1.515882,-2.872251,-8.388303,-3.055505,-9.015625,8.916105,2.074301,10.86037,-35.63931,-16.72806
0,405,-12.04408,5.355052,7.629663,7.200009,-5.34702,18.68725,-34.96233,-17.21309,-3.685126,-0.4579904,1.317861,-7.884809,-1.644012,-6.358096,12.47081,6.920563,13.75961,-32.71177,-13.22826
0,406,-3.301616,12.58482,15.79622,11.57937,2.560242,27.8344,-22.66683,-8.04467,5.515182,8.165493,9.853706,2.365578,5.707258,-1.463638,20.57161,11.35317,16.87022,-22.36725,-6.071244
0,407,-9.663777,7.217654,10.08125,8.803522,-3.019249,20.25758,-34.12407,-15.98734,-1.367604,0.5914369,3.559639,-8.870958,-2.353614,-6.482666,16.1279,9.160369,12.94317,-29.80373,-11.42316
0,408,-13.38422,5.342076,6.876863,8.461838,-5.40634,16.48676,-37.05686,-18.26423,-5.457591,-2.535076,1.103935,-12.74105,-3.485159,-3.770257,12.56374,8.64846,14.76619,-33.84058,-13.09119
0,409,-11.84618,7.735266,9.875365,9.199091,-3.426377,19.16563,-32.13986,-13.57852,-4.181064,0.1069275,3.389947,-6.762665,0.1097526,-1.986777,13.8591,10.24065,14.27234,-29.78604,-10.76501
0,410,-13.60735,3.965972,7.171975,7.575895,-6.797225,14.99739,-39.97377,-19.74086,-8.476262,-3.696534,-0.5654597,-12.14398,-2.060584,-0.7201669,11.06295,11.49242,17.46704,-35.22188,-12.5804
0,411,-10.75809,6.336564,7.326395,7.892534,-5.472584,19.55031,-34.74762,-15.83568,-4.190462,0.1793028,3.015147,-6.768046,1.423383,0.2319497,11.10079,9.99478,19.72974,-32.51063,-10.95231
0,412,-4.36238,12.77245,14.17624,10.86297,0.518932,27.0139,-25.10248,-6.960421,3.363404,7.277439,10.90187,3.494071,6.36954,-1.034929,17.23271,13.34024,17.13215,-22.58876,-5.689814
0,413,-4.963372,12.63953,14.01339,11.31842,0.6014346,26.04817,-28.2292,-9.435569,1.559343,5.594656,11.44608,0.4804396,4.475347,-1.910811,19.19244,16.4286,16.49648,-23.66973,-5.766979
0,414,-5.582048,11.3564,12.07328,8.328306,-0.5095277,25.00112,-25.68232,-8.712233,-0.04989877,4.403116,11.20856,1.066204,3.602219,-3.948702,17.21491,14.06839,13.87556,-22.65655,-6.36758
0,415,2.950749,16.20543,18.85854,13.89417,5.867369,31.35468,-21.92131,-3.755461,7.853856,10.37078,14.49799,4.11668,7.194464,-1.141791,25.14813,19.78947,19.68093,-17.92346,-1.221316
0,416,-1.178923,14.60502,15.82659,15.79593,3.62813,26.72889,-28.57026,-6.908351,2.348305,5.476768,10.63761,-3.654266,3.951527,1.368255,22.05958,18.9372,21.74504,-23.10936,-3.368713
0,417,-1.973987,14.75904,14.37404,15.49717,3.193849,27.5487,-25.20646,-6.281947,2.013247,5.605807,10.94362,-1.683013,4.411291,0.5872458,19.01425,16.27573,20.108,-22.16583,-3.827508
0,418,-2.118602,15.07531,15.7982,16.42154,3.8484,26.19611,-27.93804,-7.47986,2.224067,6.103416,12.30388,-1.42889,5.449103,2.175406,22.01409,19.4196,21.44937,-22.86745,-3.157837
0,419,-1.468293,16.61817,17.05614,17.81183,5.140268,28.26543,-25.85756,-5.670481,4.235997,8.372168,13.59748,1.766159,7.916637,3.584437,23.34469,19.17192,22.7954,-22.07865,-2.470815
0,420,0.117088,18.44186,20.61086,16.61032,7.195568,32.27913,-16.70248,-0.6099834,7.997023,12.52677,15.37563,10.37137,11.01561,0.942191,23.81049,18.34023,17.4626,-16.23015,-1.11618
0,421,-8.402775,11.05216,14.50186,10.97552,0.4218289,21.71164,-27.02037,-8.234128,-2.336854,3.344397,6.957627,1.358019,2.751729,-7.480947,18.15837,14.5539,9.793812,-24.29402,-7.981979
0,422,-5.069694,11.85712,14.1403,12.12567,1.881832,22.7856,-24.16248,-6.765549,-0.4160638,4.855578,8.087182,3.401181,4.158716,-7.109003,17.98999,14.42744,11.57142,-21.7817,-6.144675
0,423,-9.925456,7.30966,9.944796,6.968162,-2.003327,19.12004,-26.48129,-11.07398,-3.582093,1.170397,3.405131,-0.7477546,-0.6470068,-12.86603,14.97476,10.50615,5.456755,-25.38712,-10.64616
0,424,-7.188104,8.772641,12.74021,11.56163,0.3940033,18.58975,-31.04008,-12.58276,-2.572492,1.431904,4.077575,-5.29992,0.1027916,-5.710544,19.3391,16.7787,13.01581,-26.49298,-7.878314
0,425,-5.051297,11.6884,13.56811,14.0514,2.003883,22.17108,-26.73489,-8.516582,0.9083732,4.728714,6.922652,-1.114893,3.677033,-2.267163,18.42339,15.27287,15.9844,-23.71781,-5.919303
0,426,-5.257183,11.99085,13.64827,14.29549,2.293895,23.13469,-25.16197,-8.650235,1.494429,5.799939,7.447174,1.352183,5.164817,-1.854115,18.29877,14.68182,15.95519,-23.36954,-5.916475
0,427,0.2365581,16.71758,19.10361,20.4146,7.619669,26.63634,-22.21164,-4.888699,7.185164,10.94518,12.10755,4.881595,10.40109,5.264763,24.10446,20.97752,23.11573,-19.87957,-0.8113893
0,428,0.1353721,15.41748,17.39142,13.75038,5.572749,28.87947,-17.02886,-1.793163,7.912422,12.41289,13.20093,12.37928,11.55489,-1.031473,22.09932,15.07942,17.01002,-16.68083,-2.144634
0,429,-0.2597731,14.92311,18.71268,11.2122,5.694954,28.40694,-15.11032,-0.757749,6.503758,11.97985,13.39355,13.82823,11.12892,-3.858454,23.57761,17.8719,13.68036,-15.88335,-2.057627
0,430,-5.579247,9.901507,13.52031,6.227377,0.8662593,23.34268,-20.2062,-6.135343,0.6856318,6.333303,8.466261,7.654866,5.637402,-8.679296,19.41811,13.29896,9.308364,-21.0188,-6.877935
0,431,-1.296904,14.24124,16.89176,7.718698,4.730727,29.42744,-10.87407,0.6397908,6.673516,12.14746,13.96757,16.08854,10.67685,-6.761969,22.15647,14.33479,9.392535,-13.97601,-3.028507
0,432,-8.460103,7.231683,10.69158,2.585395,-2.198165,21.7824,-22.37321,-7.522558,-2.15599,3.355039,5.038993,4.058358,2.31145,-11.20374,16.62698,10.58668,6.410286,-23.2208,-9.509534
0,433,-5.099077,8.243421,12.009,4.226611,-0.2705484,22.96671,-20.49279,-6.333345,-0.04266195,5.179329,6.306466,5.214325,5.09743,-5.344316,18.33286,10.32616,11.59039,-20.98793,-6.986322
0,434,-11.74091,1.666517,6.106555,-5.488314,-7.469294,18.85733,-23.01807,-11.24788,-5.453254,0.3146827,1.373959,3.529785,0.370864,-13.71991,11.07137,0.5218113,3.650353,-25.81821,-13.79133
0,435,-25.48912,-9.306096,-5.750072,-14.78173,-19.93999,7.638092,-39.89989,-24.23889,-19.88673,-12.75561,-10.99974,-9.834957,-10.96715,-22.48829,-0.4341891,-10.27168,-4.942425,-38.84394,-25.25825
0,436,-21.07468,-5.344034,-2.563261,-12.98964,-16.78378,13.52776,-31.08014,-17.27815,-11.90829,-5.175988,-6.262568,0.2630939,-3.3583,-17.37772,0.6604162,-9.899879,-0.5861863,-33.68277,-21.48911
0,437,-19.40466,-4.209676,0.108368,-15.64112,-15.82047,17.00246,-24.72643,-13.71659,-7.797939,-1.271757,-3.534689,7.064907,-0.7250492,-19.51631,1.679331,-8.7538,-3.814516,-29.75764,-20.27665
0,438,-16.88094,-2.181116,1.951568,-13.16841,-12.68845,19.20334,-24.10049,-12.5683,-7.419168,-0.4684563,-2.151935,7.010478,-0.2680584,-18.98316,7.38938,-3.34617,-2.611662,-28.07207,-18.00611
0,439,-11.60998,2.920438,7.356633,-11.722,-7.773674,26.50284,-12.58176,-5.22432,-2.218805,5.237863,4.481249,16.38583,4.846964,-17.62872,10.99863,-1.407714,-3.611091,-19.49804,-13.37025
0,440,-15.31117,-0.1578292,5.365482,-15.31213,-11.00242,23.46949,-17.00586,-8.820018,-5.278528,1.702882,1.62501,11.84728,0.3173169,-22.94571,9.187221,-4.312361,-7.895088,-23.39016,-17.15052
0,441,-21.78109,-5.190211,-0.7186886,-17.91392,-16.43946,17.75705,-25.70715,-15.60103,-12.56383,-5.130338,-5.243544,3.360856,-5.650138,-25.78554,3.581392,-8.756922,-10.61243,-30.2128,-22.39702
0,442,-24.64681,-8.049672,-4.224261,-22.98729,-19.86609,17.73842,-23.98916,-16.19768,-14.22757,-6.053283,-8.013683,5.611951,-6.023373,-28.27246,-1.043778,-14.17439,-14.39616,-30.71256,-25.04677
0,443,-17.34313,-2.177933,3.27077,-17.04428,-13.39615,23.72367,-19.55114,-10.93044,-6.080674,1.512893,-1.717503,12.29489,1.051674,-21.48232,7.12964,-5.017676,-6.771041,-25.94943,-18.72098
0,444,-12.33484,2.965127,7.858168,-13.07232,-9.036038,30.52934,-13.69773,-4.564724,0.6607423,8.388872,3.395471,20.98413,8.170211,-15.06961,11.35567,-1.81077,-2.420337,-19.62541,-13.78548
0,445,-2.166991,12.05883,17.15005,-8.829988,-0.6106387,43.37877,2.511114,7.955177,12.11668,19.84621,14.13804,37.36892,18.05765,-12.32642,18.2683,3.061091,-0.8839567,-6.602171,-5.64682
0,446,3.352951,19.08851,23.49758,-2.217221,6.091941,51.27505,8.308722,14.6234,17.64369,25.89159,20.11599,43.60965,23.20959,-9.462382,26.33585,12.16512,2.676296,-1.595466,-0.2753862
0,447,3.370672,19.64167,23.37418,-2.962111,6.570672,53.09228,12.08798,16.72319,18.62773,26.43993,20.27168,44.49622,22.76035,-10.86265,26.14445,9.412496,0.1347845,0.3775955,-0.5215868
0,448,0.04647276,15.80413,21.32448,-8.253242,2.669186,50.30877,11.29215,13.88992,17.09053,23.96479,16.90687,43.18109,18.66492,-18.19284,20.91958,3.103708,-7.684996,-0.7651165,-4.530005
0,449,-0.03012147,16.96591,21.09403,-4.639708,3.522902,50.19588,7.442992,12.3089,15.27708,22.8244,17.23082,39.86394,18.93106,-13.17165,22.61835,6.539068,-3.090747,-2.303267,-3.379136
0,450,7.489402,23.91509,26.59726,1.303049,10.74813,58.9594,18.56111,20.86022,23.10955,31.19997,24.20821,49.92522,28.18131,-4.124452,29.06415,10.73505,5.153228,4.921097,3.398066
0,451,11.39141,28.8913,32.28688,4.192519,15.13941,65.87738,25.15352,25.82359,26.93725,36.30159,29.74009,58.18522,33.36804,-1.992092,33.76914,15.92407,5.601488,10.70512,7.508585
0,452,-3.688897,16.75962,20.08695,-6.533367,2.259585,53.28806,9.536948,11.9192,13.00739,23.78892,16.768,46.28589,22.5411,-11.63304,22.1741,5.11778,-4.471464,-2.982479,-4.772333
0,453,-14.0929,5.93945,9.70339,-19.65812,-8.530695,43.86274,5.719735,5.384602,4.874045,15.98577,6.058416,41.59995,15.31243,-21.06296,9.406333,-7.867236,-15.20711,-10.03321,-14.23127
0,454,-15.74078,3.636805,8.078528,-21.67484,-10.13104,40.68452,4.602678,3.949751,3.880886,14.87268,3.597442,41.00266,13.90415,-24.21873,7.61623,-7.769327,-17.79607,-11.55453,-15.71981
0,455,-15.00161,3.637679,7.711369,-20.88163,-9.632445,40.57894,4.529513,4.206638,5.956049,15.58893,3.000416,39.53315,13.58528,-23.81787,8.320162,-8.958744,-16.17332,-12.21797,-15.88598
0,456,-2.677622,14.07718,16.47846,-11.80399,1.750987,51.99121,21.43473,17.16339,19.4977,28.46794,14.17345,54.88268,25.37439,-15.64446,17.75184,-0.8852071,-9.616606,1.825018,-5.111832
0,457,0.2333416,16.51636,19.29135,-6.581175,4.972243,52.96354,19.44455,16.70811,19.2129,29.00829,15.53196,53.87183,26.77196,-12.24613,21.92798,6.94705,-4.727822,1.797799,-2.116297
0,458,-5.746851,13.56256,13.38294,-7.981117,0.6476631,49.29978,13.32038,11.68668,13.16192,23.81136,12.2451,48.6207,22.96986,-13.40002,16.96396,0.8832798,-7.180586,-2.596608,-6.269695
0,459,6.561728,26.56627,24.85787,2.637272,12.89193,62.68344,29.54923,27.21039,27.07908,38.02411,26.47028,67.01962,36.57573,-5.441715,28.20569,9.640698,-0.5156231,11.9627,5.079283
0,460,8.344475,26.73158,26.26131,4.710007,14.04582,62.20504,27.70809,27.07831,29.01782,39.69387,25.40461,66.95477,38.5864,-2.660763,30.3469,13.92309,5.121204,9.570547,6.137166
0,461,9.013595,27.62747,25.60735,3.173273,13.48495,65.14822,31.33728,30.44576,32.83473,43.00531,27.24074,73.22901,41.26529,-3.470326,28.36331,9.572406,2.977452,13.21482,6.406201
0,462,-0.6905998,18.03858,16.92088,-8.490754,3.819464,57.21396,25.49432,21.65975,23.83018,34.72746,18.79355,68.31046,32.80862,-16.53323,18.3319,-0.7194893,-9.692293,6.171129,-2.918482
0,463,5.217186,24.04743,23.41757,-1.238706,10.45884,61.12452,30.42884,26.27187,27.45698,38.55003,24.83101,70.51384,36.84548,-10.58318,24.72281,7.663914,-3.471905,10.26838,2.9084
0,464,16.29229,35.10568,32.89849,7.737158,21.56314,72.54693,47.31453,40.37216,39.43668,50.45026,36.48635,85.5797,47.81202,-3.546331,33.66195,15.13149,1.032994,24.50137,13.23011
0,465,7.41746,26.59363,24.92914,1.191082,13.84934,62.5136,37.84049,31.17035,30.67567,41.74058,26.71961,76.08377,39.07832,-11.84609,25.95041,9.706948,-7.226047,16.46694,5.65424
0,466,-12.16814,8.793773,7.213995,-12.65975,-3.760239,41.18749,14.56575,12.141,9.918495,22.22636,7.042027,53.70705,22.92667,-20.88788,9.520267,-5.298209,-15.11206,-4.824307,-10.66599
0,467,-9.719605,11.48047,8.407854,-10.24986,-1.395893,44.43582,21.05977,16.13375,14.71062,27.02888,9.964118,60.57048,28.27073,-16.31127,9.309361,-5.44719,-12.54278,-0.6375878,-7.893469
0,468,-10.45941,11.34376,9.472548,-8.050982,-0.7833996,42.0743,18.15615,13.35699,14.60585,27.12827,10.05371,59.71815,29.11087,-14.16287,10.85729,-2.511872,-10.23285,-2.876462,-7.759448
0,469,-9.174143,14.34962,10.40295,-3.03714,2.255332,43.64479,21.9012,16.12035,16.03664,29.88701,12.15648,64.01399,33.83889,-9.064608,12.13,-1.407692,-5.372635,-1.828857,-5.523434
0,470,-6.02464,17.88137,13.31175,-3.5927,4.278847,48.84982,29.98171,22.53315,21.68477,35.45214,17.98279,74.64493,38.09554,-11.92531,12.37906,-1.877405,-9.866783,5.798515,-2.866399
0,471,6.605339,29.30734,25.3608,8.06808,16.07986,60.5915,38.57092,33.36617,32.68479,46.25994,28.72996,85.65052,47.70972,-4.352414,25.68945,10.63268,-2.121495,17.52144,7.985068
0,472,12.75261,33.40851,28.49939,10.34244,21.04445,65.43194,47.8872,39.89337,39.8836,52.08238,33.96819,92.16743,51.65202,-3.42383,29.83437,12.8455,-1.452684,24.99758,12.54636
0,473,13.51056,32.75441,28.42248,7.889525,20.78087,64.91832,49.93431,41.22091,42.10717,52.87137,34.2589,93.16093,50.09088,-9.01303,29.53156,12.7715,-6.023314,26.70564,12.18886
0,474,-6.598361,14.6987,10.26215,-7.029816,2.869061,44.10785,26.44909,21.18379,20.10016,32.28581,14.64379,70.05866,31.71094,-23.5206,13.47723,-0.28681,-17.30033,4.516799,-5.126132
0,475,-16.45378,7.376112,0.2888885,-12.9078,-5.04643,36.2057,20.02383,13.46542,11.39004,24.98895,6.886161,64.9163,26.47557,-29.0533,3.894878,-11.13537,-22.66848,-3.950679,-13.20278
0,476,-13.32335,10.79161,3.668519,-8.545826,-1.418513,38.90202,22.9131,16.07313,15.71789,28.99556,10.33802,69.44447,30.1793,-26.12152,7.21824,-9.091093,-20.91286,0.05880155,-10.14804
0,477,-2.249798,21.86163,14.49621,3.636045,9.289382,49.24679,31.5935,26.55151,25.4243,39.15706,20.73741,78.96523,41.51757,-11.68507,17.41039,2.451602,-7.712158,9.297591,0.7067705
0,478,6.259756,29.70935,22.41145,8.229135,17.2242,59.77304,46.65018,36.91355,35.95968,49.90602,29.97575,94.48933,51.5775,-6.824072,23.83853,6.352489,-5.794687,21.36639,8.235732
0,479,16.61448,38.8053,32.36892,15.49271,26.77399,70.25523,57.70259,46.94065,47.35289,60.21441,39.4149,105.1724,59.3275,-2.992558,34.07084,17.06537,-2.233147,32.1386,16.94086
0,480,25.10077,45.75298,38.50187,20.45602,33.21212,78.69267,64.36588,54.02639,55.94426,67.75371,48.12992,112.6631,65.35528,1.160018,41.40724,23.45528,2.626502,40.07336,23.65683
0,481,26.61345,45.19503,38.44481,16.53498,33.58127,80.00616,70.79948,56.7734,58.08176,69.46101,49.22888,116.9383,65.92678,-2.636966,41.73402,20.46532,-1.184455,43.46879,23.75504
0,482,24.70708,42.88455,35.83582,15.15464,31.27213,75.97454,64.59592,54.03336,55.0744,65.85452,46.8242,110.7758,62.05464,-4.321901,40.85249,20.94541,-1.689701,40.27368,22.09592
0,483,14.97434,33.41757,25.74763,7.105091,21.91746,66.73996,54.59251,43.90921,45.0603,56.33854,36.5523,100.6152,53.99172,-9.867797,31.3447,10.28731,-6.312113,29.87023,13.13894
0,484,7.753405,26.36467,17.70663,-0.5369487,14.78447,61.30758,49.74347,37.88532,38.66767,50.97575,29.40456,97.67707,49.79597,-15.8971,24.24001,2.084585,-11.48454,23.33004,6.428034
0,485,0.01949266,19.79507,12.0928,-4.428618,8.638984,51.68587,39.42446,29.57515,30.88916,44.19637,22.50325,90.04421,45.06477,-18.05245,19.15302,-0.2201892,-12.84187,13.94756,0.7386881
0,486,2.147122,23.59515,15.03619,-1.594244,11.21857,57.06696,46.17797,33.54095,35.37048,49.09901,26.62512,97.62814,50.36764,-13.87545,19.08159,-0.6536099,-11.67011,18.82932,3.437562
0,487,-3.823898,19.30221,10.45282,-6.999026,6.847919,52.50893,44.49304,30.52592,30.98426,45.39643,22.65967,96.28664,46.62777,-20.47573,14.66707,-4.908077,-19.5518,16.03773,-1.067947
0,488,-8.214461,12.99569,4.340377,-10.22318,1.792071,45.01728,35.90929,22.60402,24.3674,38.61467,15.13101,86.62171,40.83902,-22.10773,9.592484,-7.725712,-19.31002,8.621558,-5.468928
0,489,6.110357,25.42711,16.29881,0.8694746,14.64762,59.06855,53.01991,37.3021,38.7747,52.65924,27.54051,103.0735,54.1474,-11.43894,20.4676,1.093729,-10.4778,24.05503,6.832867
0,490,-2.112817,18.80829,9.866529,-3.859623,8.067445,51.3555,43.17202,29.83012,32.12473,45.28159,19.04549,92.71397,46.08409,-17.4214,15.03596,-4.441609,-15.97966,15.59033,-0.2894357
0,491,-8.352407,13.27775,4.343265,-5.663263,2.916165,42.48858,32.5373,22.40491,24.12497,38.38216,12.47596,83.69415,42.07223,-16.13871,10.58856,-6.941566,-13.1466,6.050667,-4.884859
0,492,-5.712537,17.7707,7.607875,-2.33402,6.37999,46.7523,39.94923,27.82757,27.6751,43.03514,17.90471,91.5058,47.6757,-12.58356,11.75171,-4.40197,-11.20894,10.66663,-1.326576
0,493,-3.599136,21.41359,10.20165,2.285145,9.729506,48.90847,39.41796,29.24667,28.51533,44.45097,22.19258,92.66634,49.76136,-8.909327,16.88223,-1.818,-8.661905,13.34219,1.467415
0,494,1.44054,26.29004,15.43943,6.5906,14.27734,54.23922,45.79108,35.18296,34.80296,50.53107,27.07403,99.42931,56.01814,-2.206643,20.28638,1.596762,-3.783869,18.92229,6.360453
0,495,6.661504,29.69986,20.74299,6.633786,17.66304,60.45414,55.46537,40.78544,42.51119,57.46458,32.02979,109.2956,61.31089,-2.043401,22.02708,3.928399,-4.529644,25.80185,10.06444
0,496,1.310941,26.70231,18.27654,4.753944,15.07299,56.05327,49.98475,36.83505,36.13078,52.91961,27.93862,105.4575,58.15494,-4.876701,21.78057,3.952065,-7.719924,20.93251,6.680712
0,497,12.37426,37.83475,27.27898,15.21785,26.49922,68.3043,64.18674,48.88997,47.51199,64.51537,38.89595,119.1363,69.38478,4.969991,32.49144,12.72976,-1.088008,34.54815,17.34967
0,498,18.53557,42.85883,33.08402,18.16882,32.05988,74.01331,70.72485,54.84136,53.65519,69.98962,45.0159,124.9926,73.09349,6.218182,39.55909,19.41972,-0.643156,41.85902,22.62643
0,499,8.414542,31.45704,25.09088,9.770723,20.96359,60.40694,53.46716,40.72222,42.54042,58.05678,32.95631,107.9824,61.96754,1.023657,29.01921,13.95922,-2.927615,26.91339,13.07275
0,500,-4.586257,18.55351,12.1268,-1.319802,8.821081,47.04381,43.64859,28.1268,29.01643,45.89281,19.01825,97.13092,52.40436,-6.381148,14.59295,0.3689359,-10.73315,14.73144,1.769555
0,501,-1.601434,23.08106,15.1567,4.096511,13.36674,50.05413,47.62601,32.59905,34.23739,50.80795,23.32642,101.6937,57.02747,-1.737492,19.3745,5.426343,-7.411147,18.55,5.701844
0,502,-5.739551,20.10913,11.95125,3.630068,9.889302,45.93087,40.83169,27.86699,29.70675,46.91038,18.97901,96.58797,54.71841,-0.1842995,15.36013,4.019352,-6.522542,13.64739,3.047223
0,503,-1.962549,24.05403,15.742,5.709196,13.23629,49.76994,48.69439,35.08228,35.26785,53.15488,23.97571,107.6294,61.76654,2.586895,16.87162,3.264534,-5.234307,19.98481,6.665318
0,504,5.386391,31.69845,24.59773,13.72972,21.27468,56.45794,55.67735,42.17019,43.28438,61.09581,31.58852,115.4448,69.50078,10.95854,25.40298,13.09014,0.7354707,27.77508,14.38189
0,505,8.133282,35.98867,27.54907,20.1085,25.69014,60.23705,58.84669,43.98811,45.91841,64.23004,35.14629,117.9067,73.46855,17.57145,29.20651,16.77119,5.60688,30.58443,17.96111
0,506,14.70508,42.0456,32.86012,23.33271,31.30628,68.00919,68.89169,52.05333,51.36913,70.46608,42.31232,127.5552,79.32201,18.36456,33.8451,21.35759,7.441753,37.75514,23.21857
0,507,-5.469942,21.96184,13.87409,6.970477,12.59472,45.33213,44.5111,30.55977,29.90375,49.03303,19.92956,102.1962,58.79799,2.442701,17.05194,6.281107,-6.29054,16.23718,5.102002
0,508,-11.60281,16.80155,7.781331,4.664471,7.25197,37.74286,37.17281,24.58708,22.84148,42.2625,13.73228,93.48962,54.11102,3.313627,10.0863,-1.016214,-5.806653,9.248718,0.2785345
0,509,-4.807093,24.46052,16.25596,11.15199,14.58284,45.91143,47.54375,33.139,31.30762,50.79874,21.5106,103.6327,62.33576,10.57629,16.09843,5.510815,-1.728678,18.07967,7.322699
0,510,-5.956803,24.6459,17.52164,14.22929,14.91158,44.33017,42.51081,30.74643,30.28489,50.73441,20.56134,102.1351,63.9633,14.22252,18.08045,9.305146,4.224066,12.83078,6.984293
0,511,-0.006319329,30.3474,22.90998,18.93197,20.43446,50.47348,51.04948,37.0018,37.85979,58.2728,27.62926,112.2545,71.59731,20.1779,22.17498,12.64185,7.491244,21.02315,12.82691
0,512,9.570497,39.0504,33.27358,26.20059,29.648,59.40184,63.77482,47.13195,49.34472,68.94847,36.93054,124.6558,80.44431,24.54986,30.01641,21.4759,10.84179,31.66359,21.17211
0,513,7.140342,38.08958,33.38446,26.73201,29.08577,56.46954,59.69088,45.72681,45.87908,65.84921,34.13686,120.3605,76.97028,21.05539,30.77988,22.74575,7.949843,29.04384,19.43718
0,514,5.968169,37.54176,31.8651,24.3542,28.87948,57.41986,64.27073,47.04203,45.9331,66.43245,33.94947,124.4723,77.11029,17.0762,30.18678,18.50401,2.132447,31.79953,18.38457
0,515,13.88025,42.74932,38.14219,31.39816,35.76732,61.13986,68.2505,50.9936,51.65427,71.58156,39.13918,128.0126,81.82851,21.9554,37.55355,27.16761,9.156819,36.36573,24.62595
0,516,17.49059,45.43884,40.45691,36.52934,38.436,62.05797,66.08372,51.13687,52.17305,72.15424,41.83772,126.7811,83.31445,26.35973,40.02312,30.36678,15.14454,37.12267,27.54656
0,517,22.51534,51.58329,45.70758,41.06995,43.92109,68.12373,75.16891,58.97733,60.38821,79.74231,49.05194,136.1255,90.01271,30.58391,44.31678,33.02176,17.09788,44.78373,32.66201
0,518,22.93069,52.27212,46.77649,40.76063,44.49083,68.62993,73.65556,60.0933,61.44604,80.5578,50.11522,135.6212,90.3692,31.7159,47.79877,37.51147,18.17273,44.70786,33.66745
0,519,18.23261,49.52409,42.53947,36.20335,40.17647,66.48336,71.5491,58.58807,57.36141,77.61913,48.21161,135.4044,88.39392,27.95753,43.07956,32.63989,13.90448,42.17025,30.14678
0,520,27.3046,57.83189,51.35225,39.70031,48.23319,77.58436,86.42954,70.00103,69.93647,89.43785,59.04205,151.2308,97.99212,30.09749,51.21874,37.8123,14.96491,53.95005,37.53187
0,521,17.60427,48.45693,44.10583,30.97769,39.40541,67.57014,75.11163,60.73534,60.65499,80.04293,48.51173,139.8395,88.67844,22.86583,44.48256,31.31149,8.165951,43.78294,28.92003
0,522,18.00469,46.23613,42.89471,27.35956,37.98957,66.59184,76.89345,60.70411,60.98095,79.99533,46.8878,139.8954,88.79488,22.94694,42.70072,29.91665,9.400809,42.7083,28.2848
0,523,5.543665,33.06528,30.40986,14.29802,25.62926,52.9103,65.23497,47.84926,46.83147,66.45173,33.82613,126.975,75.6862,9.128083,30.25476,19.05462,-3.30795,31.37785,16.70191
0,524,7.836975,35.73068,31.40951,20.78923,28.60727,53.19719,62.34993,47.87288,47.4351,66.62982,34.95185,122.8996,76.62486,16.20537,33.67307,22.91844,4.05796,30.97477,19.40697
0,525,12.46824,39.88966,34.51363,24.5759,32.29938,57.73486,68.17933,53.05085,53.15187,72.25334,39.8634,130.0719,83.18787,23.66947,35.80024,22.80616,9.267987,36.81685,23.84585
0,526,10.65159,38.65065,33.59463,21.47635,30.4206,57.78502,65.98885,52.204,51.80774,71.92723,39.66573,132.1284,83.55998,22.40373,36.24656,22.17372,7.114225,36.42132,22.72438
0,527,10.03832,36.39527,32.29499,20.09103,28.38087,54.60595,61.62511,49.99589,51.26445,70.69264,37.54702,128.7088,82.79546,24.0421,34.74779,22.54367,10.76136,32.55083,21.71967
0,528,15.30933,40.18991,37.05231,19.26652,31.75847,61.20247,72.43288,57.42955,58.85241,77.46852,43.52133,138.6397,87.98117,23.90546,36.91665,22.34601,10.11525,39.7757,25.21003
0,529,11.46704,37.00902,34.24169,14.88119,28.48445,58.2737,69.85634,54.29422,54.02011,73.49419,40.95727,136.1864,83.99512,17.91704,34.3885,20.57634,4.063383,37.45435,22.00104
0,530,8.9514,36.14053,31.51477,13.49597,26.58739,56.82851,67.01424,52.52832,51.92882,71.57701,41.51018,134.6196,82.32913,16.64038,33.29602,18.20761,1.818518,36.63962,20.51664
0,531,8.331793,33.75987,30.41419,8.590988,24.70467,56.3656,69.6758,53.15716,51.16925,70.798,39.43423,136.2058,80.81061,11.33662,30.88244,14.21497,-3.050921,37.32008,18.68507
0,532,3.534467,27.24779,23.94508,3.397621,19.01733,49.06319,58.75171,44.99243,44.28518,63.54129,33.23954,125.9192,73.95679,8.091595,28.25824,11.66943,-4.469218,30.15214,13.94308
0,533,6.953228,30.06071,25.26537,6.86361,21.23407,52.30556,60.21824,48.00682,47.60558,66.49969,35.54223,127.857,77.41171,13.59557,29.7329,12.9626,1.681848,31.90061,16.73874
0,534,12.22145,32.51832,28.53501,7.171448,24.10238,56.35966,66.77772,52.05462,53.89909,72.08512,40.01862,135.2907,82.37749,15.34207,31.96564,14.63863,4.318488,36.61428,20.18334
0,535,10.09998,31.19978,27.5045,7.268878,22.5192,53.63864,61.6316,48.6068,50.59081,69.29568,38.69825,131.2378,80.39545,15.23185,31.09423,16.27085,5.227037,32.80091,18.84029
0,536,17.85498,36.70103,32.32021,8.93557,27.45768,62.49391,72.38295,57.75588,59.27476,77.27884,45.44106,141.596,87.31693,18.88779,35.00555,18.2923,8.441266,41.68364,24.58789
0,537,26.63382,44.82431,39.77348,13.03022,34.73296,73.85984,82.65697,67.28035,69.84436,87.39565,55.61923,154.4326,95.56569,21.83007,43.76348,25.43767,10.68962,52.29256,31.96241
0,538,21.37815,40.81644,35.99768,9.746783,30.69941,68.16389,75.85165,62.24899,64.22132,81.952,51.63713,147.7436,90.09288,16.68781,41.18503,23.69779,6.899948,46.39418,27.59325
0,539,16.21012,34.0708,30.27558,1.25652,24.73303,62.75061,75.25866,58.09789,60.5635,78.10252,45.55297,145.8957,86.0099,9.746838,34.00803,16.3129,0.3476356,42.37181,22.07419
0,540,11.23934,27.66844,25.69332,-4.47386,19.1623,54.63009,66.39903,50.64431,52.95208,70.61607,39.87894,136.836,79.11047,5.536902,29.96625,14.72498,-3.596445,36.65504,17.753
0,541,24.959,41.07449,35.38165,10.30687,31.73667,66.98721,75.16051,62.40224,66.05698,82.14211,53.73627,144.582,89.93298,20.47752,42.66077,26.38416,11.52296,47.83371,30.21358
0,542,21.35084,36.92547,31.29569,4.621077,27.68958,64.60532,75.71651,60.05621,62.78542,79.6316,49.90923,145.2022,87.96062,15.71007,37.26897,20.25048,6.518292,45.94361,26.5158
0,543,9.124511,25.99846,20.33871,-3.441037,16.76747,52.37994,61.13407,47.39898,50.35328,68.03059,37.19422,132.5218,77.71754,7.505179,26.58614,12.40966,-0.3466792,32.84339,16.11137
0,544,6.811191,25.14758,18.21886,-3.234581,15.82907,51.81401,61.09962,46.02398,48.99352,67.69769,35.67489,133.4609,79.08449,10.68106,24.93094,9.833125,0.4587693,32.00087,15.24685
0,545,17.12033,33.66644,27.95274,2.115527,24.86876,61.87137,75.61582,57.60258,59.88647,78.50807,45.70758,147.7725,88.95267,14.68612,33.33899,15.30019,5.071725,42.57465,23.25586
0,546,11.46932,26.86773,23.08252,-2.474718,19.1411,54.53433,66.33349,48.85648,53.68592,72.08245,37.74817,139.0951,82.38654,8.939028,28.55531,14.04709,2.140056,33.86535,17.5478
0,547,10.506,27.23869,22.58671,-2.132012,19.17446,52.88435,68.14751,50.92589,54.35657,72.4124,38.34362,140.0504,82.71841,9.157235,27.14177,11.25293,0.5087958,35.30869,17.48199
0,548,24.95962,42.48306,35.95933,12.54858,34.52699,67.6636,84.5814,66.36071,69.52314,86.78389,53.82869,154.8578,94.95665,18.4674,42.18831,24.68306,8.118191,51.41485,30.90061
0,549,23.9414,42.43247,34.9255,15.32487,34.10789,65.59929,77.34857,63.3595,65.82306,83.4733,52.78718,149.7209,92.32344,18.98034,42.98726,25.26506,8.614084,49.89986,30.53071
0,550,19.86544,36.88153,29.5362,9.546725,29.67112,60.4413,76.37619,59.31378,62.0128,79.44217,47.36562,146.5689,88.31961,13.89911,37.33964,18.20456,3.944102,46.47361,26.02971
0,551,13.24397,30.7622,23.3142,4.818459,23.78038,53.38042,68.74098,52.60842,56.47813,73.85123,40.46478,140.3559,82.51095,6.903145,31.84536,15.10656,-0.9631664,38.96515,20.06713
0,552,7.783065,28.61765,19.54862,4.753667,20.5082,48.3967,62.64314,48.51133,50.98027,69.65939,38.57211,137.0287,80.54419,6.981064,28.07737,10.0075,-2.047742,34.71661,16.76936
0,553,7.765594,28.61964,18.04902,2.726532,19.77422,49.1379,68.05869,51.27918,51.66334,70.92157,39.70502,142.4037,82.15782,4.089053,24.25158,5.588392,-4.770549,36.86287,16.35659
0,554,21.48199,40.57131,32.18246,14.47201,33.00716,60.98004,79.52824,63.64375,64.4016,83.26692,51.15965,154.6341,93.2635,13.52348,39.29973,19.83295,4.320737,49.33139,28.32415
0,555,28.76599,46.94897,37.19215,21.56609,39.83331,67.70541,84.95783,68.98808,71.82785,89.59223,57.50559,159.3786,98.26233,18.11774,46.71709,25.37598,10.17733,55.02025,34.0448
0,556,31.24403,48.13074,38.28188,21.15274,41.41393,69.84285,90.52483,72.46875,77.31992,93.46769,59.26387,163.9154,99.89716,15.66489,47.3363,25.01067,8.100823,58.63839,35.21941
0,557,25.18585,42.52262,32.43853,18.46037,35.89968,61.66117,78.41941,65.99673,68.61826,85.05716,51.55336,152.4573,92.49553,12.55528,43.4446,21.64531,6.442295,50.75173,30.07664
0,558,26.40095,43.32423,31.41847,21.55788,36.43676,61.98618,77.46239,64.4051,67.26966,84.31976,52.34944,151.8277,93.22749,14.65221,41.83908,19.5772,10.35638,49.95908,30.52901
0,559,25.49541,42.66483,31.8016,19.75508,36.10941,61.0659,79.75112,64.44263,67.81958,85.14095,53.04866,154.7121,94.3069,14.2406,41.34599,18.36419,7.981592,51.19286,30.29138
0,560,17.43583,36.51908,24.3412,16.51605,29.59999,52.19437,67.93539,56.11345,59.84288,77.76064,46.37545,145.5717,88.4742,11.0469,36.12267,14.40928,6.715202,41.20694,23.97577
0,561,22.7422,41.79839,28.90207,19.16875,33.84092,60.05888,77.61229,64.12079,65.82181,84.44054,51.76761,155.4431,95.54878,15.97737,38.35463,17.25183,10.04378,48.13971,28.9284
0,562,23.77714,42.26613,32.18591,17.18095,34.71528,59.89718,81.41316,66.86972,66.87576,85.71719,53.56031,158.8162,96.30829,13.62003,39.31226,19.33493,6.765612,50.82185,29.98667
0,563,21.17602,37.99564,27.20538,14.94696,31.36646,54.26814,74.7458,61.10732,63.94246,81.69478,49.46951,151.8445,91.93985,11.25243,36.79812,18.20685,6.677448,45.7593,27.0635
0,564,19.59843,35.66601,24.35402,11.98101,29.03481,54.05253,75.61922,59.46838,62.01928,79.98,46.71379,151.8744,90.07868,7.602923,32.72055,13.23547,2.905628,45.48718,24.79943
0,565,26.73913,42.83511,31.98973,19.50231,36.73961,61.28431,80.94543,65.75583,68.56334,86.19594,53.15905,156.594,95.32603,13.34621,42.25274,21.86465,8.35565,51.70493,31.30124
0,566,14.78005,32.57395,19.02719,10.5627,26.2281,49.10378,67.19868,54.36618,56.66882,74.44389,43.46397,142.8081,84.69061,6.082422,33.81749,11.50202,2.086342,39.78522,21.25632
0,567,5.730133,23.52347,8.897085,0.5895674,16.93416,40.56023,62.03211,46.20084,49.38302,67.00426,35.72208,136.8562,77.52718,-1.870077,22.66855,0.8181123,-6.733232,33.29147,13.17595
0,568,8.634991,24.56739,12.85135,2.572529,18.92605,40.98557,60.78252,46.8194,50.41625,68.04467,36.04879,135.94,79.08955,2.117893,26.10375,5.959274,-1.372494,32.68906,15.37562
0,569,16.50928,30.48636,17.59327,8.036973,24.54209,47.6269,66.88792,53.29497,58.25148,75.4958,43.09531,144.5775,86.69921,8.274674,31.02643,9.739391,5.973449,39.1625,21.53634
0,570,26.95094,40.86398,27.07883,14.50606,33.93466,60.60616,82.07896,66.36494,71.03583,87.34986,54.73457,159.3711,95.90601,10.86276,39.18145,15.91185,7.772357,52.24252,30.10065
0,571,24.52616,39.31301,25.74727,12.10921,32.54366,58.12813,78.3493,65.18548,67.8112,84.77415,53.46597,156.7395,93.2209,7.49168,40.99731,18.53035,4.583606,50.36893,28.75005
0,572,21.71836,35.66469,23.2678,6.780938,29.5793,55.6447,78.54453,63.65112,64.47684,81.97378,49.9674,155.1751,90.90564,4.701246,38.44494,14.29112,1.487938,48.23428,25.86275
0,573,20.76779,35.69193,22.47802,5.913278,28.94821,56.19239,78.45541,64.3086,64.5574,81.25952,49.50366,153.8021,88.58089,2.234991,37.7711,14.13877,-3.14202,50.19519,25.49493
0,574,17.71838,32.56587,18.18834,6.750016,26.22146,50.14941,68.77377,57.75038,58.28757,75.42893,45.63886,145.0394,84.339,3.246626,35.81486,14.69805,-1.234973,44.88104,23.48797
0,575,11.50766,26.26284,10.67005,0.6337422,19.77515,44.15502,64.52847,52.01596,53.16451,70.04845,39.59846,140.5693,79.20468,-2.580374,27.7529,4.530636,-6.754188,39.86963,17.29923
0,576,4.626232,19.82692,5.486628,-4.876816,13.59602,37.34804,58.66033,44.92148,47.5358,64.28543,32.66639,133.7354,73.58612,-7.666118,20.88138,-0.2294782,-10.49892,31.71042,11.00041
0,577,18.38985,32.57072,17.17397,9.634267,26.38939,49.00724,68.53558,55.95552,59.12858,75.8985,45.34721,144.0179,85.94495,7.593256,33.04241,13.93368,4.591806,42.63353,23.84404
0,578,23.14699,35.2383,20.21609,7.66938,28.9732,55.29054,77.96271,62.86686,65.56339,81.53387,49.31095,153.3136,89.4552,4.610745,35.2161,12.58417,0.9778846,50.43398,26.49784
0,579,8.817974,21.26126,8.512569,-5.976879,15.83284,41.51359,64.01103,47.64377,51.53393,68.0326,35.16479,139.7683,75.9296,-10.25298,23.63969,2.485488,-12.13516,36.16191,13.27339
0,580,2.951751,15.8063,2.480894,-9.758697,10.40055,34.28876,56.81371,42.03411,44.33266,61.56455,29.11185,132.8309,71.17863,-12.37138,17.83928,-2.705884,-13.79778,29.71877,8.495206
0,581,4.901044,19.58491,4.750208,-6.761963,13.6706,37.7227,63.14383,47.14062,46.7958,64.38106,32.66472,136.8819,73.82298,-10.71194,19.59813,-1.357564,-13.95312,34.07907,11.12553
0,582,9.427942,25.53466,10.1325,2.029428,19.72335,41.51418,63.70795,50.15969,50.44419,67.91153,37.46888,137.4771,77.52927,-2.850714,26.70925,6.687045,-7.424417,37.60389,16.49473
0,583,13.86614,28.40924,11.95562,6.585317,22.70339,42.8122,65.6965,52.50791,53.12649,70.29855,40.73365,138.7069,81.13729,4.458575,27.71151,8.926921,-0.3614771,40.50898,20.55909
0,584,7.621245,22.45169,6.45369,1.02398,17.27429,37.46792,61.69669,46.40409,46.48364,64.56596,34.24942,134.7507,76.20912,-1.432632,21.7312,1.232553,-6.580836,35.62207,14.74136
0,585,-2.564139,14.96307,-0.1819843,-3.358268,9.465924,27.97551,48.52966,35.82873,35.95709,55.31772,25.31974,122.9576,69.46115,-2.055443,15.26144,-2.455395,-7.475182,23.5802,7.38825
0,586,14.99638,32.35234,13.84623,12.79712,25.46103,46.72087,69.37093,55.26577,55.18323,73.53239,42.92299,142.8845,86.55875,12.60133,27.21551,7.985439,5.884489,41.89032,22.83747
0,587,27.73757,43.80482,26.66078,21.73269,36.90686,59.97718,82.86491,68.15796,68.64484,86.56842,55.17611,158.5897,97.58839,17.0319,39.0903,18.08217,11.20106,54.59763,33.02926
0,588,25.81488,42.72382,26.20773,21.30962,36.5322,57.89404,80.25285,65.15119,66.07364,84.25312,54.49504,155.415,95.16882,15.29334,40.6089,18.80952,9.138643,52.85117,31.78136
0,589,12.05745,27.49282,11.36696,3.917595,21.80815,44.16583,70.33871,53.17127,54.66669,71.56563,39.66143,143.1048,80.7982,-2.237731,25.45162,2.778788,-6.974254,41.29056,17.86991
0,590,3.513084,18.87516,3.527922,-2.081,13.86443,33.18069,58.10108,42.81631,45.50277,62.57024,30.47208,132.1109,72.64401,-8.465528,18.44971,-1.072123,-10.92831,30.50758,10.39704
0,591,9.399907,24.01382,7.815042,5.550822,19.59266,36.58307,60.60362,46.72012,47.67324,65.22542,34.53242,132.5162,76.8176,0.6997218,23.77454,5.103265,-1.505161,33.64921,16.07164
0,592,7.411402,21.9119,4.712605,2.937669,17.18033,35.187,61.72155,45.86647,46.97587,64.03673,32.54347,132.575,75.25098,-2.117589,19.01752,-1.220425,-5.238395,33.75649,13.83518
0,593,2.817083,19.44851,2.325993,2.848997,14.37069,30.0329,53.29928,41.12865,41.97842,59.90881,29.56511,127.8958,72.27374,-3.953409,17.8363,-2.035011,-6.444977,28.50047,10.73782
0,594,5.529898,22.91769,4.740819,6.409857,17.26662,33.23372,56.29821,44.80119,44.91634,63.40309,33.22298,132.7281,76.62755,-0.01258909,20.31725,-0.8489329,-2.811917,31.3796,13.53928
0,595,20.4561,36.28098,18.95065,15.36538,30.17369,49.09086,75.89127,62.10897,61.27063,78.87161,47.79734,151.4401,89.84447,7.913464,31.54356,9.655402,2.474784,49.19656,26.40784
0,596,9.634135,26.12938,10.48755,5.077312,20.15166,38.05532,63.42579,50.62955,49.50129,67.55742,38.34644,138.9056,78.95911,-1.009826,23.69389,3.839891,-6.516602,38.83189,17.30042
0,597,12.65337,26.75294,10.94998,5.116168,21.73218,39.90563,68.27618,52.81015,52.47118,70.01385,39.30701,141.9659,81.37917,1.016275,24.18398,2.245938,-4.269005,41.46474,18.92456
0,598,26.71077,38.42909,22.4019,16.52868,34.42447,51.51438,80.77094,65.03645,67.06593,82.85284,51.47247,153.1692,92.12714,10.57689,37.46415,15.1701,6.009518,53.62184,30.74387
0,599,15.34408,27.00509,10.68306,9.201092,23.59472,38.43936,62.86381,49.53433,52.96535,68.83571,38.60966,135.0238,79.103,2.91367,27.93527,7.46353,0.648383,39.56455,20.36915
0,600,14.81425,27.05634,8.943867,7.607033,22.64774,39.06614,65.00375,52.30272,52.67272,68.92536,39.01133,137.2276,79.89928,3.031114,25.95119,1.974216,-0.2772754,41.17225,19.89172
0,601,16.95123,30.57679,11.11049,10.43959,25.57933,42.19483,67.10841,55.37924,55.50787,72.0254,43.54953,140.6442,82.96689,5.361228,30.3261,6.081502,1.971257,43.56389,22.58565
0,602,32.58882,44.03905,24.46561,23.69913,39.27468,55.28066,78.6969,69.24662,70.29184,86.12465,57.71728,154.1229,96.73456,19.54283,45.05661,20.65459,16.25382,56.84983,36.43783
0,603,41.17953,49.0795,30.83955,23.48872,44.65497,64.21536,92.12056,78.67608,81.49319,96.03371,65.11398,167.9445,104.0133,18.62964,49.78246,23.97914,15.82989,67.01074,42.09156
0,604,37.55422,45.45916,28.18113,19.18189,40.68764,60.16074,87.00926,75.2653,76.81587,92.01587,61.98793,165.0564,100.2681,13.38957,46.64786,22.62876,11.24396,63.82871,38.92225
0,605,24.86797,33.59838,16.61485,8.206183,28.80989,46.9049,75.50093,62.1604,64.66275,79.55664,50.94264,150.8775,88.46587,4.787232,33.73037,10.72329,2.465835,51.7126,27.83409
0,606,22.12002,30.71602,13.2014,4.020311,26.44444,43.59609,76.80516,61.43545,62.11067,77.22179,48.87934,150.1594,86.16582,0.7177905,30.77291,6.86825,-2.1075,50.91983,25.46328
0,607,18.74692,27.65969,10.05245,4.912974,23.6978,37.82729,66.65675,54.88233,56.64019,71.61855,44.55796,140.2477,81.52911,2.004447,29.20032,7.593656,0.2761087,44.52849,23.01517
0,608,12.25046,20.00549,2.297534,1.051655,16.77026,28.62021,57.76406,46.33555,47.21603,63.30973,35.08493,131.7281,76.1725,0.5612169,19.8857,-1.273691,0.1343904,35.92986,16.82965
0,609,16.57566,25.25327,5.952375,6.803242,21.98184,34.12051,64.76595,51.93273,53.16862,69.52531,39.56944,139.0155,82.61436,6.857543,23.85589,3.960964,4.139017,41.72447,21.8913
0,610,15.42614,26.41641,7.540831,9.06811,22.48878,33.66307,60.56073,50.49995,51.54363,68.58565,40.85249,136.8308,82.47861,9.324717,26.39364,7.125012,5.731678,40.21035,22.24836
0,611,17.32558,27.21979,7.933731,6.677634,22.77641,37.12068,66.77346,54.08521,55.18916,72.0993,43.05518,143.841,85.40456,7.881056,25.331,4.711506,3.67017,44.31891,23.18566
0,612,19.97374,28.14689,11.44606,4.764641,24.23632,38.44201,71.11311,58.81864,57.84656,74.79597,44.39575,147.7057,87.47769,6.792609,27.66472,9.364775,3.937253,46.0908,25.07754
0,613,-1.740531,7.452577,-8.42318,-13.32063,3.673002,16.00387,45.95604,36.63812,36.25402,53.25803,22.19835,122.3084,67.11004,-8.450928,8.598477,-6.099728,-9.351414,22.97074,6.02658
0,614,4.85441,13.3048,-3.50458,-8.32586,9.909272,22.66758,55.8064,43.5682,44.10809,60.20234,28.73654,130.2752,73.15942,-3.326064,13.38432,-5.354008,-6.580836,31.76043,11.58928
0,615,0.6162573,9.074739,-6.088195,-9.10316,7.115444,16.17598,48.73634,35.47542,36.36461,53.89911,23.92638,122.4267,69.0392,-3.283458,11.05292,-4.575271,-5.895393,24.97695,8.553841
0,616,5.085732,16.24001,-1.646227,1.092555,13.17185,21.51865,50.14345,40.92579,39.91869,57.54837,28.62437,123.661,73.24138,5.730362,16.46352,0.4525309,0.9185011,29.79815,14.09649
0,617,19.54015,31.82373,13.39883,14.69904,28.23257,37.81997,69.78085,57.37395,55.75705,73.18694,45.10107,141.8853,87.47922,16.25249,29.47773,11.92091,8.44678,46.88755,27.60165
0,618,23.1312,33.35443,15.7338,15.78374,29.89664,39.88721,68.08202,58.9422,59.26334,76.09516,47.01743,144.1362,89.41219,15.74478,33.73361,17.61923,11.45998,47.35418,29.67732
0,619,28.0747,36.81549,18.76596,17.04278,33.125,45.24601,74.21821,63.92613,65.10408,81.34445,51.73388,150.4133,93.79759,17.44073,36.85659,19.96927,14.34879,51.68422,33.09991
0,620,26.19073,34.75549,17.29082,10.37646,30.59908,45.48787,78.50243,65.28101,64.45557,80.86272,51.40372,153.5838,92.05415,10.32801,33.84384,17.12774,5.953518,53.7005,31.16352
0,621,20.42861,28.7884,13.11403,5.222296,25.58682,38.98168,70.04626,57.74934,59.15919,75.21452,45.44817,146.2358,85.85751,4.230293,31.73944,14.45098,1.412756,46.6434,25.61659
0,622,18.6633,26.11764,10.04778,0.840683,22.70383,37.5052,70.22386,57.32811,57.72668,73.33945,43.12485,146.0112,83.09674,-1.501723,27.98406,8.3117,-4.023178,46.71375,22.92912
0,623,18.00838,24.57811,8.613228,-1.267669,21.71996,36.11164,69.33202,55.59576,54.92402,71.13236,42.2579,144.1052,81.19378,-3.505721,27.77522,9.531008,-5.496533,45.82191,22.31133
0,624,8.979115,15.39585,-1.426468,-6.728231,12.89943,24.67371,53.87987,43.25951,43.89056,59.77577,32.09797,128.1607,70.77989,-8.174464,20.12253,4.056172,-7.696569,33.57502,14.21845
0,625,18.08686,22.687,5.344861,0.4239685,20.31068,32.97435,64.48896,51.55912,54.45919,68.84074,39.58132,136.753,79.05013,0.4936477,24.86487,6.915726,0.3872826,41.95243,21.40998
0,626,7.973066,13.11804,-2.518599,-9.542144,10.49682,22.88195,53.82942,42.16674,44.38818,59.86598,30.44495,128.9498,71.41045,-7.248908,16.14784,0.6090496,-7.065855,32.2718,12.92624
0,627,10.29334,16.21344,-0.1955023,-5.781104,12.64023,25.22698,53.18574,44.60689,46.76249,62.66768,33.57007,131.4674,75.27278,-1.855718,18.90857,4.608593,-1.436423,33.2544,15.76133
0,628,36.27338,40.46543,22.9109,14.95345,37.09336,52.00677,83.71426,72.16882,73.47234,88.30447,58.62409,160.1586,98.31795,16.22966,41.99521,23.40914,12.95902,62.03369,38.63596
0,629,31.2926,36.26871,19.46152,9.050457,32.65923,48.05636,79.22927,68.27567,68.15958,82.64188,54.79861,153.8802,90.87904,6.530514,39.08757,20.78876,4.260979,58.20871,33.76325
0,630,9.714271,13.77652,-2.111898,-10.72571,11.17088,24.52587,55.71972,44.95599,45.50069,61.12479,31.34439,132.0806,71.84907,-10.77247,17.64511,1.851127,-9.421861,34.72635,13.77216
0,631,4.965178,8.998828,-8.075062,-15.96374,6.875713,20.46243,54.13807,40.77509,41.53073,57.16343,27.0169,128.404,68.12415,-14.33422,13.15779,-4.068573,-13.11491,30.8358,9.430453
0,632,17.29818,20.68121,2.330685,-0.6728544,19.16836,29.65389,59.66376,49.04018,51.27131,66.04782,37.87058,132.6389,77.01761,0.3329203,26.25065,9.821212,1.603214,39.50874,21.01814
0,633,34.77475,36.89278,17.90614,16.76079,35.65154,45.58786,76.24569,65.11348,67.71458,82.18108,53.47872,148.6027,93.54538,18.86628,40.68333,23.38198,18.2868,55.57335,36.89169
0,634,35.99525,39.39558,20.16027,15.43711,36.63613,49.86031,79.40117,69.15314,71.11681,85.30132,57.74323,153.8307,95.0871,16.4337,43.13498,24.38577,14.38319,60.0107,38.21317
0,635,10.65545,15.29957,-2.348001,-5.570783,12.91652,22.66891,49.62823,43.58732,44.00415,59.69556,32.24863,126.1829,72.08283,-2.957546,21.59558,6.584342,-1.461656,32.68622,15.9592
0,636,5.763977,9.883849,-8.104557,-11.0128,7.919687,18.05935,49.51996,39.67526,40.26956,56.815,26.80645,126.7907,70.50444,-6.71124,13.8288,-0.984186,-5.943351,29.61491,11.50932
0,637,6.626266,10.91674,-6.805268,-11.22138,8.80414,20.46065,52.31907,41.22613,43.60565,59.17754,27.98473,129.2996,71.10588,-8.349442,14.73119,-0.5495877,-8.35598,31.92858,12.00193
0,638,4.249889,9.809787,-9.557434,-9.303671,7.463893,17.04824,46.25452,37.54796,39.39471,55.33794,25.99915,123.1665,68.43716,-6.789934,13.42048,-0.7859256,-6.618906,28.42388,10.74835
0,639,13.752,19.72292,-1.802602,-0.7001291,17.11878,28.23036,60.04466,48.95191,48.0589,64.5807,35.7156,134.902,77.35548,-0.4979417,21.20479,5.622053,-1.653067,39.70897,19.4078
0,640,14.50809,20.82808,1.529203,2.558261,19.53328,27.03437,58.96925,48.06096,46.29869,63.76558,35.81774,133.2876,77.23886,1.16335,24.51756,11.25452,-0.9005106,39.93998,21.07153
0,641,21.68348,27.50303,7.831187,11.9153,26.39388,32.02517,61.13936,52.87007,52.52214,69.60197,41.7997,136.6938,83.94324,12.38275,31.69373,18.08124,9.760581,44.74024,27.97331
0,642,33.04559,37.38949,16.54215,20.15159,36.54344,44.48046,75.45531,64.45522,66.19878,82.22879,51.96729,151.0799,94.77748,19.06921,40.89707,24.90438,15.92938,56.86072,37.23025
0,643,30.1136,34.46018,14.7253,17.2031,33.49047,39.95106,69.08907,60.86349,63.02942,78.67195,49.8376,146.342,90.52373,13.95006,39.69825,25.36819,12.75762,52.83299,34.43862
0,644,18.57864,23.21454,4.10068,5.207516,21.68624,28.6079,58.90123,50.64462,51.07224,67.51454,39.10284,136.684,80.57339,3.772572,27.00053,13.43238,3.008874,42.5587,23.98494
0,645,12.27214,16.25041,-1.707824,-3.82762,14.7821,23.76171,56.88288,44.77324,46.27351,62.67977,33.30439,134.2773,75.34437,-4.712512,18.94414,4.094889,-5.479228,38.13035,17.34416
0,646,10.56245,15.56732,-1.672404,-1.433215,14.90955,21.40696,52.66984,41.40941,43.57267,60.33842,30.72851,129.2422,73.42263,-3.505396,19.89259,8.069658,-3.929453,34.49153,16.69298
0,647,26.28147,30.37543,11.7828,11.91695,29.51801,36.13687,69.74142,59.0885,61.06232,76.57825,45.97961,146.2907,88.16472,8.658345,33.63976,19.69837,7.327671,50.52596,30.60974
