type,latency,P7,P4,Cz,Pz,P3,P8,O1,O2,FC6,F8,C4,F4,AF4,Fz,C3,F3,AF3,FC5,F7
0,1,-17.5832,-13.93102,-15.62367,-15.33466,-14.12559,-11.85564,-18.83595,-13.46801,-7.984789,-2.073233,-12.76468,-8.718257,-6.705413,-13.06334,-15.96926,-4.678761,-7.030563,-16.74598,-12.23937
0,2,-11.61204,-9.138759,-12.86698,-10.57065,-7.516749,-6.756775,-14.79483,-8.821789,-1.958774,4.08674,-7.059175,-2.425985,-0.4836604,-5.576433,-8.293575,0.8249195,-0.546513,-9.321235,-5.442687
0,3,6.728746,10.46519,7.873955,9.463519,11.62321,12.74305,4.15232,11.51959,15.49181,21.52789,9.853242,13.8672,13.52709,12.64083,10.07338,18.07854,12.34372,6.978402,9.844923
0,4,12.89898,17.66837,17.63444,17.37623,18.02101,19.25863,11.35724,18.99382,19.35728,24.28161,14.35161,16.8462,14.5848,17.34641,14.42082,24.19943,15.13245,11.30153,14.07153
0,5,9.700863,14.65201,16.16837,14.97113,15.09071,15.95563,7.538596,16.49929,14.32502,18.8635,9.475013,11.59686,8.603494,13.5364,12.64719,20.03914,12.42903,7.945023,10.83973
0,6,3.382337,8.925316,10.12434,8.942311,8.980881,9.928581,0.7434813,9.708097,9.312022,13.31272,5.38369,6.437452,3.786328,6.94138,7.338533,13.50403,8.147562,2.252712,5.437007
0,7,1.125827,6.810212,7.295063,6.323582,6.394374,7.573246,-2.37213,5.963711,8.988572,11.66028,5.749283,7.113843,5.679951,6.307177,6.135208,13.42195,9.631581,1.091563,5.412028
0,8,5.791084,11.54544,12.58684,11.05153,11.2922,12.11917,0.7933619,9.164598,15.47251,17.66406,11.92733,14.11975,12.3626,13.93854,12.2951,18.94142,15.26397,7.438201,11.4248
0,9,5.30697,10.6201,12.03493,10.73852,11.7838,10.82287,0.08380391,6.888974,15.20606,17.17567,11.39057,13.54069,10.64682,14.13635,11.24015,18.28909,12.57604,5.425481,9.529383
0,10,3.584187,8.65654,10.52192,9.145617,10.2674,8.645119,-1.672907,4.081915,13.61908,15.57774,9.662223,11.4908,7.719947,12.33399,10.66939,15.59756,9.130123,2.553215,6.529033
0,11,-9.59661,-5.068202,-2.213846,-3.954,-2.116281,-5.707436,-15.82828,-11.63152,1.356238,2.635977,-2.538863,0.08486944,-2.699153,-0.761444,-1.838988,2.054413,-2.839273,-10.89723,-6.225948
0,12,-11.46766,-7.459952,-4.019822,-6.284699,-3.296735,-8.143027,-20.34304,-16.173,2.699223,4.475563,-1.935169,2.819375,2.061545,0.1783835,-1.023025,3.589505,3.67583,-9.980371,-3.318794
0,13,1.212511,6.110281,8.48677,6.82518,9.663509,4.891418,-8.600028,-3.792566,16.04135,15.84643,13.11779,15.96189,14.83793,12.85264,12.65627,15.71842,16.0972,3.686558,9.719814
0,14,11.73818,16.68444,20.42705,17.99033,20.2176,15.17985,2.978917,7.158246,24.83337,24.42051,21.7255,23.96261,20.77066,22.73404,21.47235,23.62087,19.32333,12.7911,16.76011
0,15,13.80051,19.006,24.15248,20.79228,22.51384,17.52241,6.542143,10.4528,25.91689,26.2133,21.89956,24.72581,20.38306,24.71699,20.90559,23.2655,15.62755,13.24717,15.72043
0,16,1.113731,6.296736,12.23712,8.163964,9.825546,4.638627,-6.582422,-2.635636,13.69486,13.71688,9.620353,13.39768,10.26882,12.17637,7.881667,10.99596,4.142618,1.679664,4.166334
0,17,-0.8311083,5.904269,9.579538,6.964547,9.457541,4.03332,-9.386786,-5.138169,16.00265,14.98611,12.53255,16.29832,14.28746,12.72562,6.670227,10.67178,6.353047,-0.8878371,3.495723
0,18,-0.02148981,7.289366,12.36341,8.763722,11.29268,5.158596,-8.566193,-4.156305,17.15463,16.73195,13.49166,16.66007,12.64991,15.31789,6.177567,9.58204,6.446325,-0.3927968,3.486746
0,19,-6.927614,1.199981,6.87004,2.025862,3.432568,-0.5368506,-15.11278,-10.47906,12.78131,13.29038,8.341448,12.27141,8.309264,10.3282,0.3372791,3.968983,0.2271611,-5.968007,-2.491513
0,20,-10.72898,-1.462557,4.361001,-1.546289,-1.544768,-3.253024,-18.36265,-14.27845,11.63214,11.5753,7.656003,11.16771,7.374825,7.736872,-3.331228,1.832451,-3.788942,-8.347954,-5.448053
0,21,-7.908084,0.8807104,5.918335,0.7358455,1.368477,-0.5701565,-15.22202,-10.93725,13.48544,14.77425,9.579885,11.78271,6.752831,9.661115,-1.558415,2.906839,-2.234786,-5.024815,-3.269208
0,22,-7.220205,1.020612,6.448319,1.453234,2.97702,-0.2043879,-15.50336,-9.775747,12.62391,15.52791,8.214677,9.719818,3.872994,8.261101,-0.09812678,3.137483,-1.844703,-3.459483,-2.412381
0,23,5.255702,11.88858,19.82597,13.45384,14.68714,10.87117,-1.917581,3.096706,21.36054,26.35189,15.84165,17.50213,10.31344,17.81811,11.52623,11.17282,4.795347,8.730857,7.250783
0,24,2.424461,7.362285,16.53174,9.666303,11.06916,6.484998,-3.894405,0.4300756,14.66774,20.55866,8.859258,10.64201,2.89449,13.1134,6.115388,6.223797,-0.5333754,6.124325,3.428009
0,25,-1.381098,2.829503,10.78437,4.752665,5.529274,2.29838,-5.590107,-2.30691,9.046064,14.59352,3.599479,6.226686,1.077063,6.603961,1.442792,1.204464,-3.823056,0.5099735,-1.230766
0,26,3.407065,6.444092,14.13073,8.786706,9.254992,5.775226,1.48751,3.010756,9.609926,14.51116,5.050594,6.645458,1.439274,7.656988,3.488892,2.81012,-3.206501,2.536224,0.4166946
0,27,-3.023425,-1.40902,7.649021,1.705207,2.94169,-2.352719,-4.927097,-5.062149,1.803739,7.038228,-2.888867,-0.3823727,-4.503178,0.2413006,-5.125174,-3.490421,-7.464896,-3.820287,-5.052321
0,28,-3.015918,-1.38976,7.046253,1.305297,2.386226,-2.007092,-3.9902,-3.939729,1.668256,7.080951,-3.168151,0.2590842,-2.594049,0.220183,-7.278297,-3.283095,-7.301359,-3.489255,-4.801587
0,29,5.493227,6.928202,14.3537,9.484019,10.22143,6.517481,6.501358,6.042109,7.876683,13.64717,3.736203,5.339679,1.377667,6.472556,-0.4118279,2.229011,-1.80963,3.04497,1.096241
0,30,4.963937,5.611858,13.58694,8.671161,9.6738,5.328446,6.664686,5.898915,5.687317,11.9165,0.8475969,3.882376,0.4744247,5.705404,-2.338341,-0.383866,-3.427269,1.39951,-0.6147715
0,31,2.460356,1.415674,8.984138,5.037945,7.633912,1.124211,3.898121,1.505612,2.616426,9.029492,-2.916083,2.286088,1.196164,2.059291,-6.19072,-2.965531,-5.951218,-1.589744,-3.117167
0,32,3.350337,2.275954,9.68611,5.89526,8.633183,1.997705,4.647162,2.440501,3.508626,9.689461,-2.066414,3.722635,3.418044,3.120311,-5.382829,-1.140815,-3.232874,-0.8679567,-1.505552
0,33,8.053835,7.762264,14.6147,11.23282,14.03095,7.4901,9.052424,8.242631,8.318337,14.13069,2.974664,8.452978,7.75717,8.849341,-0.6139311,3.785514,3.063607,3.416376,3.48318
0,34,11.8527,11.40849,19.13713,15.15497,17.00692,11.20905,13.37177,13.00579,10.22289,15.79073,4.582167,10.37208,9.291634,11.77377,4.100335,6.727571,4.274172,6.505456,5.984013
0,35,2.46359,0.9315803,9.761289,4.733786,5.756434,0.6673538,4.89429,2.808127,-0.5500889,4.091502,-6.173579,1.171378,1.185509,3.315477,-7.060338,-1.892752,-4.351167,-2.4835,-2.620207
0,36,-2.580522,-3.922691,4.100328,-0.518471,1.287185,-4.11132,-1.677,-2.928568,-3.332351,1.056324,-9.152038,-0.3672389,1.454349,0.2009003,-11.41247,-4.739641,-5.109398,-5.534989,-4.848648
0,37,2.676699,1.313393,9.021336,4.682846,7.239727,1.268122,2.93122,1.569035,3.593786,8.802327,-2.876692,6.38476,8.496534,5.672143,-5.901437,2.08531,0.1869447,0.3743963,0.9812504
0,38,1.956904,-0.02633741,8.555566,3.582616,5.856294,-0.7073852,1.875193,-1.714705,3.091211,6.595159,-2.745928,6.597425,8.624622,5.975345,-6.312366,1.691447,-1.173009,-0.2397102,0.3923993
0,39,1.784715,0.162924,9.515618,3.709422,5.31661,-0.7287315,1.506594,-2.201569,3.281022,6.637995,-1.997939,6.143106,7.330826,5.938687,-5.231127,1.899168,0.3107672,0.09148924,1.006589
0,40,-5.816868,-6.513265,2.385731,-3.944593,-3.504433,-6.785449,-5.190303,-7.680718,-3.460973,1.180734,-8.55471,-1.655886,-1.220882,-1.109773,-12.61485,-5.119736,-5.041491,-6.030544,-5.377942
0,41,-5.51106,-5.451937,2.576246,-3.672172,-3.848842,-5.29869,-4.230979,-6.519184,-1.376043,3.778213,-6.599692,0.1583984,0.3759091,0.9434167,-11.73679,-3.513552,-2.440575,-5.77751,-4.343482
0,42,-2.667068,-2.023331,5.52457,-0.4477207,-0.3729712,-2.595731,-2.529591,-5.615495,3.359979,6.516254,-0.5704851,5.27721,6.128922,4.055191,-8.249402,1.733275,2.433774,-2.501065,-0.04439382
0,43,-7.133524,-6.117913,0.3322124,-5.013144,-4.444071,-6.583278,-7.781488,-10.48534,0.9321085,4.160457,-2.928055,3.02324,4.467824,0.7137725,-11.71914,-1.848054,0.261152,-6.013752,-3.202936
0,44,-10.65287,-8.828291,-3.196111,-8.740734,-9.187108,-8.523058,-11.54134,-12.98027,0.1117605,3.960853,-4.824734,2.397547,3.79888,0.4308962,-12.07177,-3.374716,-2.395917,-8.096814,-5.611808
0,45,-6.599488,-4.517782,1.697252,-4.68446,-6.024067,-4.088216,-6.840563,-8.584773,4.488319,8.503283,-0.5926316,6.515311,7.247078,5.2885,-8.31128,1.395404,0.8531657,-3.664396,-1.583008
0,46,-5.631268,-2.445343,5.336606,-2.326057,-4.501705,-2.143722,-5.733744,-6.478445,5.818398,9.944117,0.1589862,7.5351,7.4922,6.778863,-7.113357,3.149886,0.8913082,-3.521079,-1.226246
0,47,-7.290324,-4.446212,3.272887,-3.679436,-4.354262,-4.449977,-9.228528,-9.340816,4.226216,8.072534,-1.726062,6.22474,6.401453,5.163822,-8.102861,1.810714,-0.6095587,-4.994864,-2.535936
0,48,-13.06469,-10.70163,-3.908062,-10.47598,-11.31624,-10.39316,-13.99688,-15.16417,-1.161945,2.84155,-6.939259,1.844685,4.162233,-1.021555,-14.49476,-3.145634,-2.688592,-10.88273,-7.019681
0,49,-21.30569,-17.92801,-11.83507,-18.31401,-19.02038,-17.28195,-23.93719,-22.93279,-6.147419,-2.287857,-12.77351,-1.470863,3.524612,-6.753768,-19.92571,-7.086316,-4.150422,-17.63775,-11.575
0,50,-18.38843,-14.04563,-8.445701,-15.00167,-16.0839,-13.32285,-22.64325,-20.0452,-0.9695131,1.863991,-7.834325,4.262815,9.488577,-1.177384,-14.40747,-0.3082405,0.4424312,-12.94744,-6.562238
0,51,-6.936661,-1.9088,5.193679,-2.746774,-5.116156,-1.257226,-10.65412,-7.579509,9.542237,12.64087,2.796265,13.07095,15.42913,10.274,-2.963454,11.26675,8.668136,-1.389938,3.760205
0,52,-6.681311,-1.087673,8.762806,-1.896613,-6.0859,0.1225523,-8.555637,-4.92627,9.379408,14.78498,1.172982,11.96201,12.43999,11.76843,-4.613164,10.75587,6.33139,-0.519897,3.073092
0,53,-6.15782,-0.3615048,10.59382,-0.9864037,-5.22739,0.7390639,-7.683636,-4.202571,10.15167,16.0386,1.725596,12.86941,13.20095,13.0794,-6.114328,10.58105,7.166616,0.2877715,3.707054
0,54,-9.47026,-4.715116,7.592868,-5.284542,-9.861072,-3.260188,-10.35076,-7.736651,6.26022,13.72189,-2.811654,9.162935,9.915004,9.616937,-10.68582,6.742165,4.626801,-1.177986,1.421505
0,55,-16.88622,-10.88028,1.271522,-12.32718,-17.84642,-9.175046,-17.76026,-14.3177,1.599786,9.311353,-7.6615,4.455575,5.425859,3.607522,-17.43321,0.6766868,-3.084941,-6.690678,-5.062302
0,56,-22.40754,-15.10935,-3.745013,-17.07891,-22.22231,-13.58265,-25.67755,-19.86739,-1.25011,5.510297,-10.08939,2.003143,3.421214,0.3091652,-20.65707,-2.974613,-5.38253,-9.625147,-7.944244
0,57,-25.14773,-16.68821,-6.222488,-18.85099,-23.20758,-15.47818,-29.9465,-22.87019,-1.790106,4.599859,-10.04463,0.8947483,2.025971,-2.032154,-22.06845,-5.516521,-6.961397,-11.70023,-10.00165
0,58,-20.70216,-10.45884,-1.285915,-13.31507,-18.08352,-9.59954,-25.95777,-18.01361,4.722002,10.29875,-2.078021,5.613458,4.755719,2.231969,-15.75331,-2.503729,-5.055887,-6.923752,-6.664455
0,59,-22.71487,-12.61153,-3.630546,-15.30372,-20.186,-12.06713,-27.66441,-20.53204,2.253011,6.927375,-4.03327,3.475267,3.001106,-0.7031084,-16.89909,-6.928365,-8.4941,-10.32694,-10.14027
0,60,-21.66086,-11.01665,-2.373778,-13.13665,-16.97615,-10.91041,-28.01978,-19.56629,3.150401,6.899577,-3.070712,4.294281,3.551041,-0.1539601,-15.17004,-5.907807,-8.979306,-10.36308,-10.00249
0,61,-26.388,-15.2315,-6.167838,-16.90092,-19.36008,-15.48061,-34.92218,-25.45218,0.5297602,4.340499,-6.174592,2.073229,2.600972,-4.968138,-19.316,-7.145072,-10.62075,-14.22734,-12.5695
0,62,-14.70126,-3.280738,7.143604,-4.779738,-8.509617,-3.687032,-22.44183,-13.47866,11.79462,14.91426,4.912961,13.87635,14.30715,7.604415,-6.993205,4.484906,1.175322,-3.91967,-1.481093
0,63,-12.91454,-3.31639,10.08,-3.192931,-6.53421,-4.579786,-20.95382,-14.54426,10.57588,12.76919,3.633261,13.27302,13.27886,8.446427,-6.561093,5.966392,1.846309,-3.393315,-0.3493494
0,64,-11.41648,-1.915226,12.02813,-1.274316,-3.879075,-3.468437,-19.97368,-13.29733,11.42641,13.2648,4.384826,14.50576,14.32876,10.66738,-6.937527,7.494818,3.431396,-2.13253,1.180567
0,65,-8.953967,0.4353053,14.51541,1.220059,-1.247283,-1.317798,-17.79826,-11.23,13.44483,14.69013,6.613038,16.53879,15.78497,13.56811,-5.134189,9.804616,4.368112,0.5971062,3.322168
0,66,-17.99245,-9.150434,3.795723,-7.781907,-8.552943,-11.32987,-27.15413,-20.91263,3.103681,3.693613,-3.053263,6.570439,6.397439,3.179807,-15.60818,-2.487097,-4.93737,-10.29819,-7.127688
0,67,-23.95386,-15.2119,-3.45907,-13.58173,-12.91326,-17.53872,-34.25225,-27.54834,-2.186229,-1.693495,-8.387536,1.586332,2.252122,-3.310027,-20.26967,-10.28656,-10.78972,-16.95905,-13.64816
0,68,-12.64219,-4.758874,7.778355,-2.43325,-1.992324,-7.265494,-21.7645,-16.0278,5.710423,6.606923,-0.09685744,7.897377,6.622415,4.204054,-10.0562,-2.711018,-6.681166,-6.838666,-5.90054
0,69,-8.894636,-0.9685292,12.95331,1.997963,1.952031,-3.701565,-16.95652,-11.93696,7.829445,9.360456,2.006278,8.367912,4.977067,5.690796,-7.069327,-0.7760767,-7.846092,-4.804207,-4.970084
0,70,-7.288871,-0.198369,13.24934,3.457326,4.880726,-3.120092,-16.41429,-10.84616,7.398614,8.801444,1.800778,7.723966,4.245767,5.587681,-5.855971,0.5260361,-6.175123,-3.551021,-3.449903
0,71,-6.207088,1.174025,14.99846,5.057312,6.16092,-2.001784,-14.84094,-8.958528,7.030931,8.10177,2.106972,6.830708,2.944163,4.746264,-5.478623,0.3125311,-6.269804,-3.258803,-3.350938
0,72,-6.90089,0.01487836,13.7438,4.115376,4.980259,-3.154367,-14.53321,-9.10207,4.412134,5.425643,-0.3757941,4.052197,0.8458093,0.326814,-6.843387,-1.572732,-11.34096,-4.896185,-6.043207
0,73,-7.468419,-2.344468,10.94612,2.461058,5.088627,-5.589458,-16.0303,-11.08942,1.735656,3.210421,-3.073433,1.515866,-0.7291096,-3.401263,-8.196478,-3.7627,-14.10748,-4.541419,-6.956473
0,74,-8.279311,-3.269167,9.605476,1.603539,4.626665,-6.767149,-16.91814,-11.60022,-0.3614384,0.7451742,-3.985925,-0.6351666,-2.772815,-5.055171,-9.682418,-7.272981,-12.38187,-5.327305,-7.396793
0,75,-12.28911,-7.215067,5.413207,-2.429196,0.6568223,-10.60468,-20.98582,-14.81422,-4.963606,-3.751404,-8.281302,-4.914629,-6.113488,-9.502136,-13.70752,-10.49426,-11.89852,-9.324168,-9.828222
0,76,-8.316131,-3.980443,7.56461,1.138632,5.405654,-7.262874,-17.88963,-10.78616,-2.725725,-1.458986,-6.131462,-3.005255,-4.454221,-7.164035,-9.650649,-7.38744,-10.96993,-5.047655,-6.777976
0,77,-8.174521,-4.406855,7.122224,0.7291596,4.810685,-7.640825,-17.16858,-10.97693,-3.50478,-1.947854,-6.708225,-4.449483,-6.310615,-8.966626,-9.793054,-7.764987,-13.80702,-4.708679,-7.601129
0,78,-5.518739,-1.842285,10.67968,3.310435,6.535907,-5.041154,-13.54154,-8.245998,-1.065399,0.7037558,-4.496046,-1.937212,-3.565518,-6.941236,-7.685598,-4.3926,-11.82387,-2.354196,-5.17611
0,79,-7.248606,-4.678555,8.311451,0.8770549,4.651869,-7.64121,-15.38329,-10.64001,-3.423014,-0.6445568,-7.764231,-3.895298,-4.804714,-9.243874,-9.31633,-6.512248,-13.77813,-3.851124,-6.875573
0,80,-7.486929,-5.845718,7.314446,-0.04755903,3.971102,-8.835444,-15.24846,-12.7917,-3.105599,0.3744125,-7.731534,-4.024616,-5.465727,-9.651868,-8.110991,-8.662991,-15.17759,-5.105731,-8.350957
0,81,-7.191935,-5.397703,7.563619,0.09315132,3.743551,-8.358237,-14.53549,-12.79489,-1.844473,1.518451,-6.44879,-2.811758,-4.923626,-7.78244,-7.679011,-9.680819,-16.3192,-4.797778,-8.804272
0,82,-7.735014,-6.246032,8.703276,-0.5881937,2.234616,-8.738459,-13.81496,-13.03261,-1.50329,4.068595,-7.771637,-2.223042,-3.655094,-8.030335,-8.258909,-10.55812,-16.34374,-5.505575,-9.428656
0,83,-7.950687,-5.456408,9.229722,0.09147714,2.842889,-7.858572,-14.27417,-12.05154,-0.9579417,4.532817,-7.563211,-1.705108,-3.253685,-7.325056,-8.120025,-9.380662,-15.67292,-6.424245,-9.52486
0,84,-9.215886,-6.807614,8.068794,-0.9610827,1.818463,-9.867095,-15.69431,-14.20319,-2.977369,0.1690045,-8.846911,-2.200853,-2.586571,-8.424349,-10.6217,-10.74213,-17.65045,-8.600601,-11.16656
0,85,-5.043406,-2.63394,12.57593,2.841791,5.122208,-5.48158,-10.55195,-10.1829,2.426436,6.578676,-3.525127,3.139486,3.283699,-4.031396,-6.900704,-6.173843,-10.71391,-4.190981,-6.035396
0,86,-3.448718,-1.493977,15.02053,3.8543,5.254041,-3.682333,-6.097246,-7.897051,4.618077,12.01955,-2.484636,4.519969,4.95081,-3.990044,-7.086022,-6.175907,-8.980546,-3.578279,-5.433856
0,87,-9.496648,-7.949213,9.019767,-3.011168,-2.426658,-9.533253,-10.73648,-13.41599,-0.8407656,8.046295,-8.815283,-0.5573491,0.461689,-8.944831,-13.52142,-12.71704,-13.63781,-9.270282,-11.08633
0,88,-7.177405,-5.236287,10.50341,-0.8833742,-0.4354469,-7.143061,-8.7742,-12.10679,2.596003,9.901199,-4.126368,2.757503,3.558553,-6.298028,-10.8943,-9.20344,-11.84972,-6.220051,-8.327213
0,89,-6.1275,-4.123333,10.58855,-0.02140285,0.4619729,-5.634477,-7.187054,-10.18045,3.674405,11.15448,-3.503902,4.238992,5.522543,-4.370036,-9.63052,-7.361748,-9.132049,-6.529238,-7.333004
0,90,-7.499037,-4.169261,8.079875,-1.075732,-0.8437992,-5.649729,-8.443839,-10.09796,3.148506,9.212371,-2.686184,3.597213,5.095855,-5.524147,-11.02698,-7.762322,-9.375389,-7.9791,-8.29697
0,91,-5.951897,-2.739347,8.446291,0.1417835,0.5770757,-4.057709,-7.2788,-8.58571,4.482866,10.10627,-1.321509,4.672456,5.137973,-2.666473,-8.829631,-5.725311,-8.938977,-6.358547,-7.027067
0,92,-11.35955,-8.129333,2.60572,-5.479103,-5.103535,-9.181249,-12.77007,-13.1906,-1.295311,4.492357,-7.12865,-0.9304032,0.02384899,-8.09391,-14.1127,-9.977297,-12.33849,-11.23792,-11.36165
0,93,-10.60657,-6.617846,4.007264,-4.384664,-4.190488,-7.53975,-12.33181,-12.70183,2.133943,8.534604,-3.955431,2.276173,3.417452,-5.955034,-11.68493,-7.40904,-7.995914,-10.23454,-9.152201
0,94,-9.3943,-4.838426,4.819144,-3.169235,-3.074187,-5.60035,-11.65911,-12.00979,5.370244,11.35822,-0.7469199,5.241733,5.139303,-1.062107,-9.007042,-3.285931,-3.747005,-9.074785,-6.616335
0,95,-16.72956,-11.43529,-2.021162,-10.36774,-10.60624,-12.01046,-20.502,-18.4348,-1.061114,4.142852,-7.0735,-0.3059897,-0.01378598,-5.180781,-15.57126,-7.350204,-6.22463,-13.5868,-10.43484
0,96,-19.25188,-13.30535,-4.521581,-12.87972,-13.98982,-14.06649,-23.8762,-20.96133,-3.15394,-0.4006346,-8.251639,-1.451044,-1.635582,-3.834562,-16.9675,-7.484741,-5.866263,-15.07535,-11.031
0,97,-17.3909,-10.76624,-3.225227,-11.20734,-12.36572,-11.44119,-22.8678,-19.11298,0.4209427,2.891688,-3.769747,1.565934,0.711289,-0.3321751,-14.34042,-4.416219,-1.492349,-10.83744,-7.128443
0,98,-11.10009,-4.745488,4.64511,-4.742845,-6.859029,-5.427344,-16.21911,-13.29612,6.334717,9.090069,1.22757,7.172462,5.050237,6.638786,-6.815092,2.07405,1.8502,-5.154427,-2.049025
0,99,-8.931564,-2.537528,7.425699,-2.694524,-6.227251,-3.263891,-13.80482,-10.45576,7.091244,8.601059,2.264064,8.190506,5.514306,8.83251,-3.649046,3.43164,-0.01021934,-2.158804,-0.8386983
0,100,-5.704615,0.7362583,10.50324,0.6568501,-2.993873,0.3533,-10.27341,-5.59193,8.804641,10.93246,3.546697,9.304423,5.876896,11.11224,-0.584512,5.867446,0.4185258,0.8837759,1.169394
0,101,-8.838926,-2.333035,8.217605,-2.779993,-7.963558,-2.202062,-11.92951,-6.970202,4.916842,7.998341,-0.7839289,5.383479,2.098934,7.649858,-3.558982,1.998666,-2.918303,-1.901687,-2.127252
0,102,-20.61856,-13.5326,-3.935309,-14.82646,-20.6287,-13.02837,-24.0624,-17.75485,-5.427734,-2.787434,-11.12252,-3.661579,-4.905716,-2.730616,-13.60001,-8.049887,-10.16934,-12.32791,-11.49644
0,103,-27.21969,-19.70591,-12.15073,-21.76704,-27.15325,-18.8134,-31.4376,-24.06297,-9.947345,-7.870137,-15.89475,-6.762635,-6.027601,-6.958757,-18.62545,-12.17658,-11.86575,-18.63697,-15.94055
0,104,-27.53496,-20.1096,-13.27238,-22.11185,-26.56843,-19.14745,-33.27384,-25.37108,-8.741988,-6.546557,-15.17088,-5.000714,-2.329124,-8.10483,-16.27978,-8.967304,-8.218375,-18.80534,-14.20781
0,105,-22.89317,-13.64107,-9.015018,-16.455,-21.06167,-12.69116,-29.08668,-19.16352,-2.655397,-1.551029,-8.021176,0.3653179,2.869409,-3.703963,-10.10594,-2.140758,-1.79757,-14.81738,-9.072441
0,106,-19.72668,-11.54915,-8.839659,-14.53947,-18.4377,-10.71951,-26.18864,-17.86222,-0.1931206,-0.375795,-4.656633,2.720154,4.310119,0.2086371,-6.244612,0.1779933,0.03724787,-12.14973,-6.662416
0,107,-9.669793,-0.6259372,1.55836,-3.83598,-7.657502,0.03533588,-15.93135,-6.678117,9.587209,9.166602,5.981334,11.48372,11.69613,9.85559,1.628401,9.129551,7.629828,-1.622696,2.541932
0,108,-7.017914,1.740059,4.659737,-0.7745175,-4.173977,2.020762,-12.71301,-4.337547,10.93565,10.36543,7.310912,12.56751,11.70729,11.98712,2.161746,8.643823,5.831937,-0.5407622,2.520648
0,109,-3.065923,7.477465,8.229894,4.014912,-0.2607978,7.323718,-7.182245,0.6124045,16.18859,13.68142,14.54278,17.09348,15.71059,14.76708,5.378645,10.10341,5.729289,1.314595,3.613441
0,110,-10.16268,1.500758,2.346906,-2.014472,-6.519561,0.929018,-13.84694,-5.656441,9.570885,6.419227,8.614441,10.27055,8.909157,6.468887,-3.295145,1.047347,-4.467126,-6.181663,-4.997443
0,111,-13.09388,-0.7601652,-0.1531858,-4.231531,-8.5439,-1.315317,-16.02727,-7.698654,7.246758,4.344576,5.89315,8.025785,7.014003,3.284018,-7.81264,-2.118028,-8.75726,-10.76381,-9.243717
0,112,-6.053338,7.574996,7.897447,3.848994,-1.326128,7.199094,-7.832742,1.930946,13.42721,11.49641,12.66395,11.75029,8.384371,7.954516,-0.6934994,3.263402,-4.727188,-4.728845,-4.281969
0,113,2.397253,15.52515,17.45974,12.74555,7.352494,14.96896,1.916319,11.56048,18.2112,17.21066,17.52063,15.14919,9.910912,13.17571,5.699015,6.988537,-1.931538,2.243591,0.7608589
0,114,0.7833489,12.74052,15.23297,10.50186,5.148301,12.27092,0.782469,11.13531,12.64165,11.64364,12.09604,10.49483,6.960884,8.322659,2.689162,3.627771,-3.30776,0.6926181,-0.8683516
0,115,-2.793106,7.862223,10.76393,5.935594,1.561208,7.44811,-3.406295,7.124119,7.589121,7.639031,7.249499,6.033111,4.815515,1.465598,-2.258292,-0.5455535,-4.207489,-0.3349699,-2.299257
0,116,-7.68058,2.006014,3.291061,-0.1350153,-3.17423,1.472076,-9.884158,0.5739352,2.711601,1.81419,3.242884,2.109237,2.545239,-3.649204,-6.826769,-4.2969,-5.669656,-3.159359,-4.693096
0,117,-4.422848,5.580251,4.454876,2.891734,0.3793491,4.970271,-7.955911,3.633073,6.457274,3.856493,8.001838,6.254775,7.392122,-0.2093686,-1.223438,-0.009207197,-0.8349898,0.4927714,-0.4887966
0,118,-1.2632,8.981949,7.126564,6.880694,5.722031,8.127151,-5.715218,6.801623,9.265326,6.141036,10.5382,9.128677,10.20781,2.636783,1.708023,3.411387,1.265339,1.754305,1.543684
0,119,4.790061,14.81577,12.4662,12.92803,11.99436,14.20893,1.15034,13.39984,14.43546,11.55054,15.06279,14.27468,15.0469,8.889166,7.147251,10.23041,6.865632,5.351752,6.349743
0,120,5.941756,14.67242,14.5871,13.5526,12.10263,14.04391,2.812647,13.05271,14.33967,12.05381,13.9663,14.22753,14.15948,10.58299,8.606004,11.97135,7.255032,5.730476,7.054568
0,121,-0.8544123,6.782275,7.622088,6.33356,5.921869,5.649982,-4.689197,3.971195,7.135402,4.580535,7.037839,7.732736,8.670595,3.132349,0.4827796,5.524883,2.824194,-0.703254,1.487562
0,122,0.005080029,6.487437,5.985189,5.900678,6.928575,5.171302,-5.378675,2.475561,8.489719,5.599426,9.394536,9.583993,12.15827,2.962962,2.343921,6.867507,8.15116,2.206742,5.009473
0,123,8.781261,14.58751,14.13732,14.21852,15.73993,12.85376,2.181688,9.31581,16.73596,13.49329,18.66529,16.60694,17.84907,10.03967,12.33783,15.07735,14.90782,12.77297,13.95837
0,124,12.17324,16.89695,16.89898,17.54648,20.34831,14.67022,4.718636,10.87494,18.32609,14.80131,20.42836,17.58224,17.71971,11.89779,15.42173,17.56864,15.86773,15.20652,16.09505
0,125,9.141639,12.32039,11.47306,13.4738,18.05819,9.775846,-0.5336872,5.246477,14.3365,9.523325,16.74604,14.74238,16.29345,8.486327,13.17355,17.02866,15.37446,13.25719,15.17124
0,126,10.07675,12.28246,11.60964,13.4993,18.01023,9.660355,-0.333035,4.821073,14.44569,8.760942,17.06373,15.51366,17.57027,9.570975,15.16364,19.80122,17.42024,15.3938,17.53489
0,127,9.882359,11.68463,13.52761,12.83344,15.17335,9.608172,1.336397,4.614535,14.6462,10.70958,15.83462,15.15627,15.46431,11.96823,16.42337,20.0036,17.64575,14.66335,17.04595
0,128,2.469006,2.311928,6.398749,3.975348,6.602108,0.4774629,-7.377052,-5.310724,7.387468,4.580086,7.01953,9.187147,10.46768,6.654515,9.753382,15.22944,13.30093,10.40169,12.79377
0,129,6.54944,5.585043,11.30517,7.706627,10.21065,3.557099,-3.238907,-3.173362,11.68742,8.778801,10.76698,14.14624,15.36173,12.71586,13.27098,21.97099,20.30772,13.9839,18.15352
0,130,8.877541,8.624048,15.1412,10.56025,12.33475,6.34362,-0.7024999,-1.012666,15.53351,11.57118,14.54558,19.23319,20.88072,18.19511,14.98378,24.67341,24.25977,16.08168,21.034
0,131,7.109908,7.855022,15.95783,9.595451,10.01366,5.542684,-1.822319,-2.64874,16.019,11.76991,14.13676,20.49783,21.54042,20.84634,13.21621,23.67279,22.93062,13.71866,19.20424
0,132,5.944822,7.669998,15.2081,8.539324,8.091012,5.527976,-3.153155,-3.52697,17.6263,12.68737,15.69667,23.34599,26.27823,21.61868,13.8041,25.24253,25.90613,13.31662,20.21851
0,133,17.70478,18.431,27.1731,19.68959,18.58232,16.83441,10.48456,8.915007,27.40377,24.33912,24.12366,32.14415,33.40659,32.57452,24.22783,35.46063,32.08468,24.0161,29.25102
0,134,16.91466,17.54145,25.74353,18.73197,17.28454,16.74016,11.21589,10.5991,24.8093,23.14703,20.39827,28.84604,28.89429,31.82721,22.30384,34.0459,28.22416,21.68432,26.39422
0,135,17.03977,16.97555,26.24759,18.69991,17.01805,16.05877,11.24403,10.37694,23.22659,21.2987,18.57913,27.53362,27.6867,30.9393,22.90332,34.38123,27.44963,21.54007,26.26356
0,136,16.05629,16.02412,27.02518,18.29763,15.90005,14.6364,10.59246,9.631415,20.53764,17.61449,16.27567,25.48976,25.90881,29.43036,21.08097,32.73226,27.00325,19.76308,25.11454
0,137,12.82886,13.93803,24.69343,15.75895,12.40708,12.16376,7.683004,6.807756,18.05214,13.27403,14.855,23.45778,24.03715,27.19094,17.75082,30.5833,25.07248,15.90019,22.23119
0,138,13.06977,15.05787,24.32639,16.5313,13.0312,13.23457,7.492066,8.319894,18.23334,11.87875,15.54748,24.3885,26.13413,27.02563,19.40884,31.43422,25.64162,15.31065,22.35612
0,139,15.92531,18.07122,27.54917,19.77831,16.37404,16.38563,10.25412,11.69137,20.94891,14.8272,17.44308,27.02908,28.05145,30.84469,22.30511,34.43361,26.4139,17.45548,24.19499
0,140,11.03969,14.13099,21.50244,15.04485,11.37314,12.30067,5.852028,7.781609,16.01469,8.650639,14.38946,21.27484,21.35157,25.89033,17.217,28.37054,22.59244,12.03006,19.04644
0,141,6.703278,10.85562,15.68612,10.81065,7.356544,9.058759,0.7075763,4.731138,12.29435,3.895902,12.23031,17.17934,17.47197,21.13511,13.60149,23.86994,19.77093,9.260861,15.84283
0,142,0.1027921,5.385372,7.983236,4.706594,2.136973,3.031565,-7.850897,-2.022355,7.109757,-3.413397,9.137677,12.56294,14.97528,12.95034,7.939232,18.86951,17.52766,4.390247,11.91928
0,143,2.384094,8.140879,8.171211,6.532177,4.323848,5.785753,-6.456119,0.1696676,10.48905,-1.292867,13.96312,16.03531,19.29116,15.17197,11.47246,22.64267,23.01102,7.965119,16.10837
0,144,12.85228,19.83038,19.41379,18.34981,15.74499,17.1209,4.157233,12.04127,19.72359,6.733761,23.95634,23.63263,23.67719,25.57313,21.81018,31.02507,26.90043,16.78986,23.1922
0,145,21.53614,28.87914,29.77727,27.61879,23.18939,25.78174,14.88749,21.8033,25.77895,11.97117,30.92597,28.213,25.79751,31.66943,29.15946,36.50892,27.11786,23.97383,27.82408
0,146,25.74339,33.3048,35.68762,32.66629,27.68848,30.09171,20.7348,28.36218,26.71076,13.70079,32.01677,28.02519,24.55076,32.10562,29.80173,37.31314,25.48382,27.27502,29.07467
0,147,20.77882,30.74496,32.44569,29.97971,24.89858,26.90985,16.22266,25.09295,22.94935,8.57888,29.30687,23.44361,18.40567,27.82313,23.13158,30.10186,17.6546,19.80288,21.47576
0,148,11.23386,22.5993,23.87959,21.42353,16.05399,18.81858,6.624503,17.01124,15.19806,0.800731,21.43685,15.98876,11.72936,18.77508,14.05519,19.94533,8.286341,10.22925,11.79459
0,149,8.369216,20.92558,21.45797,19.03606,13.13125,17.12921,3.940248,14.82009,14.27182,-0.6649823,21.04337,15.22055,11.56865,16.62155,11.28732,18.31219,7.191476,7.679017,9.799517
0,150,6.700637,19.8291,19.95041,17.79112,12.48194,15.81956,1.240252,12.0039,15.20618,0.0646017,22.07958,16.48664,13.90012,15.71413,10.95304,18.98378,9.862243,6.019424,9.963757
0,151,15.67301,29.27276,30.59529,27.40502,21.19985,25.312,10.00896,21.969,23.76289,8.466115,30.11583,25.20104,21.59883,26.83416,21.39224,27.21796,19.05652,14.82865,18.75664
0,152,15.67695,30.08368,32.33399,28.00154,20.76154,26.83902,10.64479,25.02789,23.2224,9.398921,28.28492,24.20317,19.08664,29.2316,20.65574,27.42881,18.52427,15.53641,18.71437
0,153,7.407932,22.42509,24.71334,19.79131,12.08103,19.37642,1.788335,17.70395,16.30909,2.433271,21.35244,18.58914,15.51975,22.21106,13.31766,19.88187,15.22636,9.259843,13.15757
0,154,12.99594,28.80822,31.67871,26.15426,17.98651,25.58658,7.556856,24.18475,22.08459,8.022346,27.33797,24.26078,21.10131,27.48746,18.20618,24.8428,19.8347,15.0068,18.38804
0,155,5.155434,21.72143,23.93706,18.84259,11.03258,18.55508,-1.284099,17.33744,15.0326,0.2051422,20.03833,18.35991,16.32345,21.3654,10.09076,18.45216,13.62265,7.933425,11.77809
0,156,2.203745,19.58549,21.4611,16.46387,8.398972,15.83038,-5.351708,13.56829,13.37919,-3.572991,19.46914,17.4142,16.01433,19.16522,8.811257,16.10061,11.86368,5.438218,9.692348
0,157,0.003209874,18.09328,18.37594,14.51282,6.874889,14.6023,-8.466108,12.61182,11.59885,-5.030694,17.97818,14.6708,13.11934,15.34404,7.832639,14.55386,8.370347,4.62284,7.743199
0,158,0.1296814,17.4443,16.33773,13.36116,6.249287,14.25706,-9.268032,12.11635,11.62516,-4.84777,18.47547,14.51504,13.08367,15.4135,8.885263,15.2493,9.658233,7.369982,9.592859
0,159,12.22436,29.56272,29.09641,25.49285,17.18612,26.7261,4.703372,26.07402,21.34547,6.194485,28.40629,22.17167,17.69638,26.93605,20.60189,24.71815,20.18824,18.10148,19.73896
0,160,8.798095,26.72598,27.90971,22.64099,12.31034,24.32445,2.565205,25.96128,15.28975,1.049101,22.10653,15.2624,9.871499,21.89207,17.65043,21.02283,16.42127,14.75476,16.01419
0,161,2.759611,20.01849,21.20361,15.9186,5.942475,18.16417,-3.041681,20.95806,8.254168,-4.338372,14.36548,8.283489,3.695171,14.68808,10.0272,14.6714,10.64663,9.915988,10.52783
0,162,4.4806,20.36929,22.82566,16.97297,7.308983,18.81125,-1.711169,22.75953,7.870966,-3.929029,12.60878,8.975324,5.581316,15.5661,11.59535,15.99186,10.81726,12.54593,12.29504
0,163,-1.566084,12.28896,14.95545,9.337571,1.02699,10.76895,-8.576166,14.42811,1.228969,-10.28541,5.285621,3.89687,2.553385,9.178422,4.194672,10.04665,4.605042,8.378937,7.408828
0,164,0.8300832,13.84912,16.16353,10.91207,2.799805,12.49658,-5.784856,16.56559,2.916246,-8.243255,6.849299,6.039676,6.017742,9.68928,6.540205,11.25782,5.830401,10.99334,9.397697
0,165,8.74123,20.92943,22.64906,18.22709,10.18207,19.51303,3.014276,24.79692,7.864179,-4.08389,12.35443,10.84629,9.810243,16.71191,12.77251,16.30501,9.407289,17.78751,14.93413
0,166,6.627278,19.40505,22.19311,17.00734,8.189229,17.75821,2.133574,23.46565,5.105754,-7.690256,9.207114,8.44891,6.766743,15.4493,8.192205,14.73495,3.773148,13.55816,10.82293
0,167,2.514941,14.63337,17.31118,12.47831,4.352438,13.39162,-1.466174,19.85294,0.1728328,-11.4843,3.293992,3.812937,2.371587,11.78806,2.135144,10.69597,-0.08769129,8.82083,6.470654
0,168,-2.398141,9.097618,11.97604,7.094585,-0.1563082,8.0803,-7.081771,14.1073,-3.916239,-14.41123,-1.537168,0.1377783,-0.2267697,7.243928,-2.777473,7.469421,-1.307947,4.864674,3.519589
0,169,-1.165787,9.244989,13.67619,8.148452,1.62411,8.264563,-6.572356,14.51021,-3.565933,-13.15055,-2.567403,1.135796,0.8155711,9.344442,-1.459528,7.250799,-1.035911,6.268023,4.388339
0,170,-5.642464,4.118939,7.860965,3.010325,-2.204626,3.030762,-13.24248,7.866488,-6.581862,-17.00683,-5.749775,-0.482837,0.639353,7.222524,-4.985145,6.485545,-0.5996312,3.58565,3.217993
0,171,1.565063,10.07806,13.70598,9.165841,4.872941,8.836719,-6.69389,12.64468,0.7685498,-9.738094,1.817887,7.251709,9.080366,14.41317,2.004913,15.75942,9.828838,11.44238,12.26958
0,172,1.605658,8.234261,12.07041,7.794497,4.380071,6.695139,-6.934605,9.594617,0.1165961,-10.64136,1.459631,7.121325,9.365019,14.2248,2.029991,14.83789,10.78062,11.54119,12.64944
0,173,4.706904,9.460231,13.79021,9.456525,6.449591,7.785131,-4.152113,9.653811,2.705763,-7.990062,4.003609,9.963433,12.40741,17.04413,6.906524,17.7913,15.12292,14.61648,16.24229
0,174,9.283294,13.45599,18.98646,13.81,10.62059,11.60411,0.01296212,12.19725,8.081285,-2.346684,8.902941,14.86334,16.03564,22.65245,13.45092,22.06495,18.05104,19.28545,20.28613
0,175,14.87462,18.50479,25.47192,19.22948,15.73705,16.36182,5.20933,16.08458,13.73227,3.312456,14.48991,19.96148,19.64839,28.88199,20.00722,26.84657,21.36211,25.66553,25.41871
0,176,16.05301,18.92104,27.36769,20.32226,16.9552,16.20549,6.163573,14.92516,14.7699,3.784219,15.62385,21.32269,21.64406,28.5062,21.1691,29.25334,22.07172,26.37389,26.65763
0,177,17.05947,20.16191,30.33769,21.73331,17.0249,17.32206,7.664574,16.01572,15.67292,4.287227,16.24211,22.77372,23.74907,29.36868,23.28015,32.28513,24.77351,26.69947,28.30388
0,178,7.630853,9.863355,22.8194,12.22821,7.336762,6.826609,-1.943926,4.207801,7.325191,-3.444186,6.520484,15.48367,17.23681,21.80147,14.5865,25.4185,19.24872,16.57976,20.38861
0,179,5.636873,8.367567,20.68012,10.3655,6.140908,4.622394,-5.443024,-0.0140911,7.430291,-4.878685,8.38873,15.38025,16.76362,21.32025,12.23666,25.93479,21.93489,16.29612,21.24425
0,180,15.27637,17.87823,30.09554,19.85594,15.4685,13.66909,4.174971,8.123367,17.03946,3.538302,19.04987,24.363,23.89975,32.12806,21.94536,34.5448,30.15225,25.6531,30.1227
0,181,14.68517,17.50248,29.0851,19.54739,15.72573,13.58593,3.683421,7.932631,17.49332,4.611445,18.33596,25.12267,25.06706,32.26003,21.51726,34.03761,27.96329,23.65847,28.30962
0,182,17.47557,20.65823,32.37153,23.04606,20.0689,16.45224,5.793322,10.34343,20.72754,8.286126,21.8447,27.38387,26.53906,34.21618,23.94071,36.79605,31.25867,26.24978,31.11414
0,183,23.96656,27.33922,39.8258,30.08004,26.65413,22.72785,13.51235,17.2619,25.60972,12.77317,27.4158,31.45599,29.40937,38.79719,28.09058,41.05439,33.35081,31.41913,35.17047
0,184,19.10353,23.41277,35.58471,26.2895,22.53622,18.91817,10.1531,14.78183,19.66767,6.846114,21.06499,25.13661,22.47498,33.00312,21.2209,35.05487,24.0992,23.65879,27.20389
0,185,16.66223,21.20084,34.81235,24.20092,19.79331,16.77217,8.996849,12.87205,18.11951,6.254994,18.75718,24.50871,23.4781,30.47466,17.92933,31.14912,23.21475,20.21876,24.51936
0,186,21.03006,25.46531,38.1848,27.96511,23.04281,21.35762,14.62981,17.93126,22.34655,10.66408,23.21909,28.9938,29.02047,33.95032,22.10672,35.61076,29.08824,23.84927,28.96443
0,187,22.33278,27.83529,40.21762,30.02258,24.3159,23.77995,16.82541,21.13912,23.22203,11.40921,24.59515,29.00837,28.00036,34.71907,22.92093,36.11155,28.94612,24.2846,29.08757
0,188,14.22822,20.34113,32.88315,22.20724,15.96386,16.46737,8.79425,14.04999,15.63642,4.46674,17.11562,20.83228,19.20673,27.12445,15.54751,27.29974,22.11638,16.98546,21.49989
0,189,13.46343,20.85581,31.33769,22.35076,16.768,16.47578,5.88009,12.93732,16.29794,2.696079,19.07746,21.48273,19.54592,27.46728,17.36153,28.05042,22.4351,16.33473,21.48079
0,190,15.3955,23.01188,31.98761,24.14268,18.82998,18.21953,7.215896,14.8091,17.31854,2.28484,22.10577,21.81103,19.53362,27.19302,19.20686,28.48085,22.98044,19.54345,23.37263
0,191,15.2029,24.06974,32.19613,24.62595,18.57944,18.86406,7.489084,15.57927,17.16305,1.12358,23.98955,20.37905,17.03694,25.28987,19.00922,25.88787,21.72891,19.54125,22.39336
0,192,1.624891,10.43782,16.33039,10.11808,5.172576,5.547391,-7.737875,0.9118772,6.298,-9.295512,13.50608,9.459769,7.173032,12.36714,7.342784,14.1308,11.98517,8.929654,11.73093
0,193,4.920271,13.28367,18.57014,12.72733,8.132881,8.461743,-4.99621,2.931964,10.59075,-4.769258,17.93665,13.58677,11.93411,14.77646,11.85602,18.99876,16.20238,13.35715,16.16029
0,194,14.14685,22.50618,30.28643,22.86725,16.96031,17.81599,5.839056,13.80354,17.09417,2.678825,23.02736,18.8777,14.4139,23.36546,20.50984,26.07764,17.41955,20.1284,21.13907
0,195,5.878627,14.89838,23.21747,15.29352,8.639214,10.33352,-1.41185,6.948423,8.831347,-5.498167,14.07112,10.8919,6.299929,15.75129,11.68311,16.79714,6.699206,10.37617,11.13896
0,196,2.249174,12.14841,18.8634,11.82212,5.74005,7.940688,-5.803465,4.233958,7.705094,-5.901634,12.77905,9.971419,6.873567,12.1372,9.032252,13.18865,4.611795,8.327181,8.669267
0,197,-0.4367124,10.98984,15.63837,9.654477,3.684754,6.972666,-9.546654,2.543044,7.564035,-6.4378,13.18239,9.2609,6.197305,10.03108,7.651071,13.04126,2.704201,7.333055,7.355338
0,198,-2.87369,10.70713,13.60862,8.362353,2.035684,6.795169,-12.1572,2.01614,7.18783,-6.95059,13.8435,7.221128,2.638169,8.155396,5.53156,12.51103,1.507493,5.393587,5.590398
0,199,-2.037049,13.66631,15.25853,10.2647,3.003799,9.888032,-11.04912,5.075129,10.09804,-4.244647,17.54758,9.049576,3.368103,9.779746,7.138618,12.35586,1.060802,6.915073,5.90333
0,200,-11.20967,4.865343,4.908535,0.8459287,-6.059258,1.50635,-20.33168,-2.9205,1.916435,-11.84334,9.306405,1.128913,-3.659701,0.9588867,-1.758145,1.552389,-7.526435,-1.250826,-2.985476
0,201,-18.83305,-1.644688,-4.269428,-6.671432,-12.76281,-4.715871,-29.40326,-9.244141,-3.451065,-17.62941,4.494992,-3.313028,-5.867119,-5.842322,-8.16261,-5.321266,-10.38705,-6.89318,-8.022917
0,202,-13.80178,5.213233,1.146417,-0.5601287,-7.239788,2.628261,-24.52958,-1.458361,2.935766,-11.47799,10.42182,2.831054,-0.6761286,2.047883,-1.688205,1.008226,-5.036808,-2.496451,-3.201828
0,203,-0.5771362,18.89458,17.15214,13.64874,5.759844,16.78288,-10.7575,14.59309,13.83168,1.696852,20.17677,11.56796,5.233631,13.78965,12.16119,13.23619,4.414993,11.09563,8.530926
0,204,4.059796,24.62796,23.71258,19.30547,10.11888,22.62879,-4.46989,22.61332,16.09038,4.606049,23.00591,12.20019,3.846492,16.49624,14.26449,15.44853,5.390187,15.50804,11.23482
0,205,1.126389,21.79432,21.78852,16.42575,5.95436,20.05702,-5.362163,21.97718,11.16501,0.3354353,18.06537,7.471969,0.006125372,11.30035,9.625472,10.64514,1.888705,11.77971,7.354129
0,206,1.992089,22.56279,22.75118,17.55396,7.039875,20.77055,-2.918584,24.13013,10.42783,-0.06798794,17.31235,7.168058,1.056381,9.1318,8.584108,7.599561,-0.01120843,10.57485,5.696123
0,207,-1.191592,19.53024,18.14355,14.30065,4.26604,18.05569,-5.092282,22.50967,6.44719,-3.877692,13.22342,3.332773,-1.955894,4.467145,3.081806,4.272724,-5.200219,6.112209,1.191503
0,208,-6.998151,13.68225,10.04369,8.101894,-0.7890701,12.27199,-11.52394,16.9204,0.8458811,-9.804669,8.255541,-1.919448,-5.546321,-3.314746,-2.643203,-2.577576,-11.14707,0.8683153,-4.514072
0,209,0.852064,22.09872,18.9127,16.7668,6.89811,20.58216,-2.432149,26.05782,7.068659,-3.426877,14.86196,2.541352,-3.0507,1.856593,5.971745,3.314443,-7.882864,6.47611,0.2785996
0,210,-2.212233,18.57658,15.37166,13.35604,3.257257,17.27309,-4.355988,23.61722,2.409251,-7.580244,10.14423,-2.486128,-8.156566,-2.780565,1.977399,0.4878416,-11.14205,2.162139,-3.461788
0,211,-9.48973,9.89489,6.697953,5.043181,-4.281929,8.812556,-12.07668,15.37206,-5.777036,-15.09292,1.387477,-9.837325,-14.04364,-10.67153,-4.337188,-6.940229,-15.55746,-4.987655,-9.680927
0,212,-4.800018,13.82099,11.07509,9.534722,0.9679493,12.40419,-8.180243,18.29096,-1.776473,-10.93375,5.724431,-6.822254,-11.9933,-7.597656,0.8247598,-1.672992,-11.4339,-0.1452757,-4.945154
0,213,-1.486803,16.81724,15.8428,13.44278,5.077142,15.07335,-5.651119,21.30359,0.1439152,-9.040296,7.127697,-4.95512,-11.14615,-4.164463,4.271776,-0.1011205,-10.8026,3.173596,-2.684813
0,214,-1.695057,13.16848,13.30577,10.66525,3.639383,11.06885,-6.731556,16.49583,-2.184828,-11.0141,5.187147,-6.731358,-12.08029,-6.399282,3.800745,-2.146478,-10.59319,5.343993,-1.607937
0,215,-3.672236,10.90637,9.870162,7.992715,1.154621,8.792212,-8.960692,14.00045,-3.951874,-13.863,3.980902,-7.481537,-11.5535,-7.849038,1.747595,-3.340346,-10.89162,3.99088,-2.490407
0,216,-2.217491,10.31482,11.13382,8.26144,1.826178,7.984291,-7.728977,12.91133,-4.210571,-14.25091,3.208338,-6.527534,-10.08908,-5.357306,2.108587,-0.6903554,-6.853973,5.630057,0.3514154
0,217,-8.456637,2.001229,4.190626,0.4641778,-5.025541,-0.3862547,-16.13002,3.103605,-9.846858,-19.60741,-3.15392,-10.40147,-12.06986,-9.466953,-1.780265,-4.485514,-5.613079,2.035004,-1.508941
0,218,-10.10537,-0.9139636,1.118704,-2.249519,-6.525555,-3.512465,-20.60915,-1.727419,-10.6439,-21.10444,-3.769995,-10.31938,-11.21465,-9.107717,-0.1807507,-3.061795,-0.5987239,2.768219,0.8750471
0,219,-11.61613,-4.259045,-0.609469,-4.953991,-8.728727,-7.558648,-24.25244,-8.097549,-11.98391,-23.99994,-4.79237,-10.77917,-11.89071,-8.51414,-0.04612925,-0.9974756,0.8374681,3.329566,2.291891
0,220,-17.57627,-11.07607,-6.243795,-11.40654,-14.29902,-14.73885,-32.18482,-17.36605,-15.5718,-28.25481,-9.193618,-12.21098,-10.67613,-12.70175,-5.368482,-2.65969,-1.210699,-0.6324399,-0.3333622
0,221,-12.10204,-7.161281,-0.6320385,-6.487713,-8.017789,-11.19973,-29.97668,-16.15805,-8.653443,-21.79885,-3.716007,-3.694921,-0.7194343,-5.436288,3.434111,7.498356,7.030108,6.72583,8.150174
0,222,-3.979909,0.02252337,5.589115,0.8767474,-0.009987384,-4.279635,-22.69831,-10.48913,-0.5044731,-14.74132,4.710806,4.192976,5.98726,3.317463,13.75622,14.66421,11.66153,14.32632,14.8249
0,223,-10.2343,-5.928264,-0.7952513,-5.240624,-5.228809,-10.45967,-30.64667,-17.90625,-4.67543,-18.93386,0.8797475,-0.07428569,1.756421,-1.944488,8.425899,7.962829,6.417885,10.28616,9.906232
0,224,-3.501291,0.9399109,6.441483,1.720077,1.732057,-3.473491,-24.35294,-11.33901,2.472708,-10.82954,7.697119,5.693408,6.002135,4.422474,16.45496,15.70677,12.11171,17.49601,16.57145
0,225,3.733851,5.894014,12.88903,7.627254,7.778728,1.122099,-16.02817,-6.490668,6.164984,-7.115993,11.67842,8.50069,6.497729,10.21901,21.23779,20.2397,13.34448,24.09639,21.22257
0,226,4.388319,4.850578,12.8873,7.416913,8.161304,-0.381708,-14.9692,-8.275222,4.927156,-8.699328,10.62845,7.297307,4.274611,10.63271,20.00494,18.36638,10.71788,23.97804,20.18236
0,227,3.45346,4.213708,12.85853,7.268284,8.450408,-1.450131,-16.30068,-9.559506,3.631972,-9.837086,9.844379,4.788185,0.5282986,8.097466,18.76454,16.54022,8.505561,22.62559,18.45561
0,228,3.422889,5.176322,14.52123,8.44074,9.184847,-0.8946604,-15.84312,-8.953105,3.85041,-9.896718,10.5056,4.548059,0.2038171,6.437249,18.52416,15.26879,7.199462,21.2263,17.12319
0,229,0.3282107,2.043419,12.08628,5.437395,6.036425,-4.336562,-18.59659,-12.58892,0.6541513,-13.49548,7.721478,1.508093,-3.112908,3.886376,13.9517,11.44264,4.252669,18.06915,13.97071
0,230,11.46195,14.14793,25.14755,17.60614,17.67716,7.805367,-7.146895,-0.2637179,12.38673,-0.7973054,19.04289,12.06261,5.812603,15.15982,24.9496,21.15562,12.40747,29.23239,23.73399
0,231,16.25639,19.13569,31.43924,23.16248,22.38816,12.78459,-0.08798359,6.280193,15.03062,2.463305,21.17281,14.04377,6.159916,19.12072,27.45526,21.50138,11.22626,30.98936,24.25505
0,232,7.291184,12.20097,23.36361,15.22844,13.52875,5.982492,-8.677736,0.07396534,7.640343,-5.627805,14.5487,7.235094,0.7336714,10.83929,18.50377,12.92514,5.998033,22.26188,16.55871
0,233,7.495748,12.37265,23.94431,15.96038,15.08344,6.084183,-8.853436,0.3131087,7.621858,-4.976708,13.97932,7.040828,0.5730803,10.34698,18.23592,12.95835,6.183909,21.61259,16.32764
0,234,2.956309,8.181269,18.73986,11.57735,11.4975,1.719261,-13.77923,-4.627451,4.154644,-8.661583,10.99973,3.368707,-2.73602,5.061698,12.56571,8.843081,0.9790999,17.50235,11.87513
0,235,3.685509,9.813658,19.66839,13.26417,13.63043,2.825032,-14.75965,-3.192856,4.151913,-10.76041,12.19995,3.867255,-1.740334,5.389827,13.61437,10.4545,3.063414,18.94693,13.71897
0,236,10.95205,15.09906,25.78832,19.50666,20.15393,7.851768,-6.771448,2.960446,7.37099,-8.085856,15.5876,7.569502,2.645923,9.096787,19.47155,16.64399,7.366403,24.88368,19.47361
0,237,11.71717,15.30516,26.45118,19.90893,20.29459,8.421375,-4.009969,3.668392,8.157982,-5.567622,15.27994,7.800805,3.344623,7.225567,19.24667,17.53659,4.817773,23.5548,18.08681
0,238,0.5021144,4.714154,14.82887,9.03445,10.02117,-2.28162,-15.608,-8.209636,-0.6468998,-14.7291,6.550403,-0.3702902,-2.870759,-4.317541,8.420203,9.390133,-2.801164,11.54627,8.23089
0,239,-4.247369,0.9270097,8.687136,4.010706,4.97441,-5.771536,-21.18259,-12.60318,-2.189672,-16.91395,5.481111,-0.8081427,-0.7891943,-8.005085,6.210999,6.400001,-2.732571,8.319088,6.042389
0,240,-2.428248,3.796083,9.658737,6.268112,7.810481,-3.151122,-20.21039,-10.98886,1.601459,-14.05974,10.47821,2.504397,1.714254,-4.415267,8.798686,7.198934,0.7812913,10.35755,8.232136
0,241,6.45155,13.95928,18.85309,15.50022,15.13878,7.416214,-9.316333,0.5317781,10.0733,-5.416461,19.60422,8.913639,5.38181,3.854305,18.07002,14.00571,3.724859,18.54451,14.14514
0,242,3.485944,13.04931,16.53963,13.65008,12.303,6.711504,-11.38334,0.3258398,8.219272,-7.445073,18.42164,5.788395,1.236903,0.2723334,14.75931,11.18751,-2.003414,15.33308,9.939665
0,243,5.524206,17.00487,20.48012,17.19775,14.60007,10.43464,-8.325432,4.229318,10.89835,-5.973699,21.72735,8.01198,2.115472,3.760718,15.73769,13.86936,-0.8957173,15.60606,10.81542
0,244,4.660942,17.35377,20.71746,17.33016,13.87364,10.90873,-7.20517,5.484275,10.28612,-6.057084,21.0447,6.715956,0.2674291,2.151424,13.66131,10.86369,-4.186487,12.16027,7.344954
0,245,8.22754,22.08042,25.71262,21.8752,17.49093,15.8469,-1.866287,11.41108,13.70341,-1.710781,24.28395,8.982556,1.419406,4.671084,15.70213,13.02995,-3.711596,14.14418,8.67388
0,246,-3.169935,10.78097,13.88366,10.54405,6.967677,4.864868,-13.6915,1.54108,1.448429,-12.57535,12.08967,-4.071861,-11.78793,-8.066998,3.078963,0.8760034,-13.83821,4.198497,-1.874645
0,247,-5.102245,8.425163,10.02341,7.964704,4.749042,3.031907,-15.34499,1.34289,-2.364498,-15.83062,8.23516,-8.029993,-15.69062,-11.08248,0.9713573,-3.660775,-17.69145,2.596516,-4.803043
0,248,3.714092,16.85317,18.92096,16.71029,12.90537,11.86917,-5.084563,12.47276,3.115072,-9.374997,13.34549,-3.154938,-11.2261,-4.933891,8.61374,3.708724,-11.31028,10.23674,2.320988
0,249,6.637949,19.905,21.55673,19.59897,15.67103,15.30209,-1.269632,17.90722,3.896514,-7.747561,14.37766,-2.87529,-10.98812,-3.847826,9.267805,5.382896,-8.741611,13.61133,5.014546
0,250,5.954794,19.70533,19.02464,18.98572,15.88993,15.51574,-2.314097,19.65424,2.323363,-9.354433,12.99194,-4.05729,-10.43757,-6.644478,7.964939,4.729061,-9.344743,13.28292,4.526407
0,251,4.357594,18.33327,17.12539,17.75024,15.10884,14.51371,-4.358661,19.88564,-0.1001524,-11.34412,9.719516,-6.007273,-11.69168,-8.441105,6.638648,2.575258,-11.68222,11.50143,2.499547
0,252,-9.309325,5.75067,3.722317,4.461106,1.734079,2.365864,-18.50485,8.390495,-12.26428,-22.9275,-2.611479,-17.23463,-20.50043,-22.01501,-6.511779,-10.18004,-20.46495,-0.4674653,-8.683275
0,253,-10.49205,4.883748,0.9599455,2.816333,0.6093888,1.646537,-20.25262,7.145399,-12.0591,-22.77649,-1.590889,-17.36316,-20.25445,-23.29198,-7.580129,-10.63059,-20.12271,0.102772,-8.478366
0,254,-7.378809,8.476646,2.69371,6.213502,4.797232,5.104024,-17.14891,10.02533,-8.149508,-19.68796,2.726587,-13.75541,-16.73504,-20.68221,-5.062513,-6.463905,-18.88982,1.634027,-6.550446
0,255,-4.015148,12.47768,6.599364,9.966599,8.188171,9.30381,-14.21719,14.06929,-4.055653,-15.49011,6.54399,-9.980192,-13.38754,-16.39278,-0.4238447,-0.6956848,-14.04764,5.321527,-2.22587
0,256,5.900217,21.3045,16.82931,19.30289,16.69637,18.63169,-3.082397,24.79299,3.281417,-7.042272,12.54109,-2.617796,-6.243183,-7.505647,9.644558,9.642881,-6.072638,14.10285,6.575765
0,257,15.61791,29.34032,28.46953,28.65063,24.97809,27.10036,8.403982,35.80582,8.289342,-0.2115885,15.47964,2.479877,-2.544126,1.88547,17.46693,16.78618,-0.8788964,22.55613,13.7965
0,258,2.870605,15.75527,15.84404,15.36926,11.94721,13.40187,-4.992641,21.95917,-4.773159,-13.31854,2.328223,-9.416676,-13.05612,-10.204,4.945434,4.663744,-8.872798,10.73589,3.290558
0,259,7.473072,18.67004,18.64819,18.44239,15.11939,16.30995,-0.07693356,24.339,-1.216175,-10.23807,6.012697,-5.304437,-8.583787,-5.504448,10.14262,10.29908,-2.804232,14.77499,8.400891
0,260,8.013642,17.86377,19.03838,18.44944,15.35413,15.52791,0.9559734,23.86738,-2.488421,-11.29816,3.732373,-6.030391,-9.845798,-3.886853,9.855481,10.6376,-3.141874,13.60326,7.900466
0,261,9.28873,17.78983,19.32312,18.96882,16.65138,15.81202,2.582534,24.66919,-2.222522,-10.12388,2.522325,-4.500298,-7.014091,-1.909904,10.47849,12.06989,-0.2373322,13.36903,9.092943
0,262,11.3641,18.63676,21.10014,19.8454,17.03461,16.94553,5.584057,26.01791,-1.249047,-8.090212,3.257623,-3.867125,-6.799545,-0.2024534,11.73434,14.74441,2.432844,16.29113,11.83011
0,263,10.47412,16.88363,20.45543,18.65512,16.44921,15.58095,4.421568,24.9449,-2.368007,-7.618989,0.4031557,-4.473551,-7.124026,0.03245473,10.53717,14.0206,1.814025,15.59614,11.1611
0,264,10.46067,15.80291,20.51384,18.0546,15.87159,14.06741,4.454268,23.04372,-3.423074,-9.288441,-0.2794884,-5.194593,-8.04231,-0.2248573,9.687614,12.90615,0.5467175,15.85427,10.86058
0,265,11.35289,14.63161,20.52519,16.98054,14.30164,12.47005,6.439807,20.41577,-3.394195,-9.965864,0.6900881,-4.54953,-6.796639,-0.2752811,8.775425,13.75251,1.146504,17.82326,12.40456
0,266,12.2609,14.49597,20.57176,17.10871,14.65362,11.98112,6.714367,18.94412,-2.511229,-10.39327,1.68318,-2.613096,-4.425902,1.674354,10.77738,14.17705,1.019795,18.83143,13.17486
0,267,10.34632,10.28138,16.55599,13.94509,13.46669,7.529858,4.410875,14.01169,-5.892168,-12.74245,-1.944682,-6.351791,-8.875348,-1.227409,8.259949,8.086129,-2.825533,16.18355,9.658158
0,268,3.005916,3.246872,8.29015,6.531089,6.73279,0.1315049,-3.83812,4.774499,-10.90319,-18.12299,-5.865618,-12.17881,-14.23113,-10.51986,2.281511,2.331073,-9.499035,9.723107,3.241951
0,269,10.61834,11.06674,16.44219,13.99697,13.17847,7.583425,5.45171,10.88873,-1.992628,-9.495846,3.932101,-4.574947,-8.321358,-3.538973,8.849846,8.833768,-6.680417,16.65325,8.692453
0,270,11.73014,11.21249,17.51237,14.59345,14.06179,7.629378,7.436904,10.85466,-1.3372,-8.368608,4.116661,-3.328972,-6.083367,-3.526682,7.812841,9.750653,-6.619533,17.0679,9.221562
0,271,11.36175,9.095371,16.40308,12.67226,12.23438,5.63344,6.961277,8.289538,-1.693505,-8.069317,3.180275,-2.596373,-3.868689,-3.772018,8.072894,9.198956,-5.316354,18.24838,10.2579
0,272,11.84476,7.885721,15.64158,11.90251,12.16484,4.112561,6.509117,5.810456,-1.444423,-8.707456,3.380651,-0.7496795,-0.7477258,-2.09537,9.411113,9.108274,-3.114703,19.37427,11.79247
0,273,8.16194,3.169998,9.516812,7.057217,8.728084,-0.5624732,0.7209078,0.5032434,-4.458867,-12.56439,0.3739443,-1.824685,0.6466357,-4.434331,7.440704,5.962901,-2.702125,17.79704,10.78166
0,274,0.9885162,-3.860957,1.645931,0.1443059,3.408494,-7.789696,-9.364314,-8.171183,-9.51633,-17.89796,-4.832015,-6.552813,-3.623075,-10.0741,3.173399,-0.4246877,-7.219269,12.36046,5.524577
0,275,-3.399487,-9.589907,-6.096024,-5.526109,0.6045109,-13.27586,-17.03557,-15.2753,-12.0697,-19.80968,-8.112224,-8.614186,-4.549033,-13.44043,0.6834462,-2.484139,-9.463019,11.06453,3.856904
0,276,2.855744,-5.389811,-1.849727,-0.7828294,6.902021,-8.888224,-10.9882,-11.69195,-6.29876,-11.71366,-2.724545,-4.354887,-1.006328,-9.748214,6.826252,3.745402,-3.355277,17.97952,10.31114
0,277,17.39249,8.559616,12.61535,13.67078,21.01204,5.15954,5.051293,3.039853,5.646209,1.374545,9.311571,4.93958,4.466072,3.276056,20.82063,16.77182,6.924327,30.16014,21.82295
0,278,26.29707,16.46984,22.54928,22.74505,29.76271,13.25792,16.77824,12.71703,11.11188,8.736202,13.52736,8.981496,5.766567,11.15194,26.39315,23.11858,11.07887,34.66897,26.46166
0,279,24.28201,15.0722,21.60429,21.41401,27.49775,11.72322,16.91916,12.02704,8.058346,5.511889,10.89155,5.471667,1.231031,9.000449,22.31327,19.01998,8.100516,29.61527,22.1868
0,280,22.68299,14.27334,20.76084,20.21171,24.91241,10.62342,16.64591,10.89953,6.655742,2.35003,10.28695,4.66069,0.3985812,8.356725,20.27242,16.60885,5.168989,26.42874,19.28752
0,281,19.8831,10.57844,16.17513,16.22414,20.7098,6.938332,14.22406,7.123512,3.310857,-2.022863,7.420557,2.301577,-0.4105172,4.478545,17.98927,13.86952,1.729589,23.79684,16.53285
0,282,27.04725,15.34577,21.38617,21.7355,26.63983,11.34541,21.55977,11.68328,7.530716,0.9243864,11.86263,7.711109,5.920897,9.772079,24.56927,19.33319,4.954122,30.61797,22.33541
0,283,22.8714,10.09229,16.42534,16.98288,22.17142,6.046868,17.80941,7.094634,1.344449,-4.972085,5.691457,1.429053,-0.5444713,4.022683,20.24305,12.03131,-1.477513,25.73606,16.60188
0,284,15.62928,4.686533,10.0076,10.83921,15.81251,0.2455422,9.637185,0.7639301,-4.017038,-11.74343,1.856359,-4.024882,-5.642527,-2.871092,13.13574,5.729576,-6.174666,19.93242,11.01832
0,285,19.78361,7.733459,13.88284,14.51235,20.46141,3.124177,13.15234,3.237873,-0.7745682,-7.514808,5.118922,-1.818602,-4.545262,0.08279109,16.505,10.17007,-2.028072,24.97258,15.66501
0,286,23.64095,12.23294,18.42606,18.8576,24.2353,7.613909,18.09706,7.430543,3.29674,-2.340883,9.783814,-0.5542788,-6.541765,2.735905,20.47191,12.64183,-1.475232,27.91905,17.44762
0,287,30.03917,19.58361,26.36001,26.22746,30.43896,14.76996,25.69803,15.50609,8.438017,2.497143,15.64407,3.405599,-4.436684,8.28368,26.4858,16.59024,2.202637,32.84216,21.68732
0,288,27.0872,16.63867,22.21985,23.11211,27.77552,11.94623,23.75989,13.43328,4.965426,-0.5788469,12.68016,-0.0486769,-6.995634,3.921393,22.12867,11.81999,1.122706,28.4685,18.26096
0,289,20.75846,11.2856,15.70879,16.9773,21.73722,6.914406,17.189,7.977813,1.004885,-4.05316,8.751523,-3.825657,-9.843542,-1.02668,16.03341,7.237381,-0.7617872,23.06376,13.97081
0,290,22.16583,14.46904,17.9986,19.63103,23.87864,10.21997,17.90718,11.74116,3.104874,-2.589976,11.10025,-2.204423,-8.753943,0.8612306,18.5788,10.30322,0.4396541,24.94817,15.71434
0,291,27.28732,20.08142,23.24153,24.91453,28.33251,16.23972,23.82837,18.77011,7.520442,2.17784,15.30829,1.733827,-5.390935,5.768657,24.20617,15.25183,4.406684,29.57474,20.04325
0,292,22.85694,15.36799,16.87507,19.49859,22.81758,11.96648,20.24162,15.08807,2.637437,-2.58563,10.94596,-3.103537,-9.988899,1.77373,19.05615,10.79416,2.225266,25.32629,16.30536
0,293,20.3054,13.27108,14.11413,16.58828,19.42768,10.26111,17.92822,13.4998,1.608026,-4.03658,9.583604,-2.262727,-7.180606,2.368666,15.60145,10.01618,3.957889,23.90599,16.01336
0,294,11.07022,5.119092,5.536862,7.46891,9.795639,2.939528,9.060087,6.005319,-4.280894,-8.089057,2.494714,-7.499868,-10.71602,-4.458195,7.002245,2.957016,0.4014651,15.8764,9.324779
0,295,15.9459,9.919202,11.23309,12.63702,14.79644,8.061127,15.32468,11.45615,0.5338477,-1.39151,6.198827,-3.594726,-8.17325,0.9650104,11.46948,6.17132,4.720084,18.41716,12.37755
0,296,7.896331,3.158112,3.995793,5.063152,6.04726,1.859859,8.518889,6.274188,-6.709092,-7.600214,-1.233742,-11.34187,-15.732,-7.592225,3.319567,-2.629982,-4.062829,10.77829,3.908162
0,297,9.201702,4.994704,5.325009,6.380662,6.680949,3.889711,10.47089,8.389157,-4.43863,-5.82452,0.8142085,-8.165549,-11.49383,-5.352537,4.544723,-0.9937046,-3.298816,11.90511,5.018363
0,298,13.08959,9.445397,8.228569,10.13347,10.3616,9.084547,14.85258,14.46518,0.4848999,-0.6269376,4.444235,-1.911351,-3.630662,0.0004941821,7.605866,2.947324,-2.355116,16.14137,8.102912
0,299,9.533973,6.005373,3.589126,6.814487,8.424997,5.651845,10.41381,10.93959,-2.451806,-3.601343,1.164025,-4.350311,-5.072291,-3.759834,3.448185,-0.5335972,-6.450566,12.37757,4.358637
0,300,2.396695,-1.075269,-3.882337,-0.4692559,1.847776,-1.274287,3.224921,3.437424,-8.002741,-8.294516,-4.764607,-9.871477,-10.41234,-9.695927,-5.252474,-7.248853,-12.67879,5.949759,-2.132637
0,301,-1.326596,-4.83977,-9.240567,-4.781127,-1.752906,-4.559,-0.7922448,0.03676021,-10.51138,-10.11274,-7.576081,-12.04151,-11.76021,-12.175,-8.968774,-10.13598,-13.54764,3.014159,-4.504991
0,302,4.220364,-0.429827,-3.321512,0.1646368,3.208859,0.02830707,5.073233,4.831331,-6.128273,-3.954464,-3.887605,-8.761531,-9.959689,-7.490067,-3.501533,-6.234075,-10.30715,9.258235,0.2640614
0,303,-1.822384,-6.84198,-10.95712,-6.444461,-2.188745,-6.367612,-2.381704,-1.928766,-11.71276,-9.671172,-9.01554,-13.93107,-13.96387,-13.68795,-9.534278,-10.86344,-12.88703,5.096088,-3.429499
0,304,-1.560476,-6.449409,-10.78796,-5.977936,-1.226914,-6.022186,-3.016366,-1.60286,-11.50508,-9.505013,-8.612168,-13.8694,-14.218,-12.7686,-8.793532,-10.19587,-10.22474,5.816834,-2.117639
0,305,-1.318702,-6.029967,-11.11473,-5.789637,-1.124332,-5.323658,-2.932231,0.1684892,-12.4411,-10.5419,-9.493867,-15.00184,-15.92518,-12.41164,-8.755828,-10.65324,-11.81242,6.897083,-2.233158
0,306,-1.600646,-6.365842,-11.94146,-6.420388,-1.521711,-5.604721,-3.777812,-0.7866635,-11.61298,-9.508494,-8.477138,-14.38135,-15.52302,-11.84375,-8.116578,-11.19655,-11.15794,7.828935,-1.723312
0,307,-0.8102147,-5.860749,-11.97152,-5.970937,-1.106789,-5.060821,-3.529949,-0.2029545,-11.26778,-9.865952,-8.187176,-13.77466,-14.88662,-11.20182,-5.958011,-10.73222,-13.26143,9.16689,-1.574943
0,308,-9.603463,-14.31157,-21.91175,-14.92756,-9.309058,-13.03414,-14.36814,-8.361465,-18.2778,-17.02028,-16.04173,-19.23276,-17.99235,-18.24738,-12.29553,-16.80691,-18.34923,2.520512,-7.58968
0,309,3.561288,-0.8118827,-7.320454,-1.548688,2.910756,0.4155775,-1.432746,5.370885,-5.794453,-5.150967,-3.392186,-6.964728,-6.558813,-4.800494,1.136723,-1.896996,-6.655627,17.35874,6.243999
0,310,2.164217,-1.727351,-6.412639,-2.242868,1.458764,-0.5998262,-3.106723,4.9002,-7.727367,-7.031614,-5.504335,-8.708861,-8.47683,-5.544951,-0.7630174,-2.174517,-6.258889,17.06423,6.17844
0,311,-1.713012,-6.704998,-10.83297,-6.932089,-2.602665,-5.198174,-7.429256,0.1091618,-11.26417,-9.068577,-10.15563,-11.48287,-9.621481,-9.258194,-3.471404,-4.655212,-5.049721,13.57437,4.39279
0,312,3.040643,-1.12173,-4.97986,-1.456293,2.374897,0.1017026,-2.665984,4.16185,-4.9589,-3.293091,-3.490591,-5.856152,-5.047439,-3.385539,2.460775,2.52809,1.846872,17.05323,9.562556
0,313,7.61529,2.880723,-0.3182859,2.759022,6.344495,4.185653,1.761106,7.698785,-0.3846194,1.021344,0.2836805,-0.8508319,-0.395357,2.881531,7.77952,9.68783,6.438688,21.21167,14.46093
0,314,7.45213,2.252918,0.530874,2.8271,6.056349,3.109984,1.586613,6.884205,-2.302716,-2.054791,-1.504486,-1.944593,-0.8291734,1.863532,7.461624,10.89452,7.382133,19.83898,14.53802
0,315,7.315697,1.388939,-0.5964215,2.41484,6.744822,1.85417,-0.2597615,4.55407,-2.735473,-3.388708,-1.495724,-2.544778,-2.22392,2.513579,8.675052,12.49191,9.341243,19.8414,15.57154
0,316,15.15488,8.053196,5.866207,9.635271,15.08959,7.840471,6.807889,9.169295,4.372247,2.6602,6.731816,3.862932,2.568811,10.42149,16.39633,20.01904,17.17535,27.00015,23.15015
0,317,17.83646,11.20249,9.71935,13.03244,18.04361,10.53998,9.328437,11.45625,7.024311,3.880819,9.611557,6.838526,5.002039,14.13006,19.10577,23.56952,18.83746,28.66665,25.27774
0,318,20.25826,13.3766,13.60758,15.64056,20.27882,12.15106,11.20037,11.79781,10.42811,6.187313,12.82718,11.34891,10.20869,17.58077,22.37377,26.49498,20.898,31.19254,27.95894
0,319,20.41282,12.91084,13.58568,15.7019,21.31093,11.09554,10.68156,9.209637,11.63728,6.642244,14.05456,13.18994,12.4232,18.28152,21.97384,26.38145,20.0055,30.8591,27.70474
0,320,22.31374,13.12961,13.8295,16.33095,22.59313,11.59233,13.14706,10.62149,11.46302,7.581586,13.60623,13.44734,14.12999,17.86127,23.3709,27.26018,24.15992,32.33828,30.01107
0,321,21.34837,10.91057,13.40933,14.86732,21.43787,9.512438,12.22966,8.67403,9.898456,7.763134,10.85718,12.10355,13.37584,16.04657,22.99846,24.65457,23.77529,31.44254,29.0159
0,322,18.10234,7.278033,10.45401,11.21512,17.86857,5.84108,9.476213,4.156232,7.836022,6.514969,8.694063,9.991122,11.41076,13.3491,18.63776,21.73647,22.45315,28.53121,26.5767
0,323,15.61465,4.658318,8.276175,8.687715,15.29153,3.029012,6.910264,0.5916657,6.289259,4.485644,6.909954,9.161009,10.75048,12.55412,16.38656,18.55289,19.6311,25.76064,23.80417
0,324,22.71942,12.20379,16.96952,16.4996,22.13646,10.3218,14.29742,7.956847,13.12121,10.26887,13.47356,16.64007,18.23088,20.38035,24.28389,25.79129,25.37158,31.54486,29.95331
0,325,25.21861,15.72602,18.88563,19.34309,23.88771,13.71502,17.41893,11.31429,15.57931,10.95053,17.11533,18.31033,18.78158,22.08947,28.36485,28.02977,23.64334,32.89945,30.423
0,326,20.46675,10.85212,13.37615,14.69711,19.65473,8.490636,13.28271,6.257845,10.29834,4.960418,12.34703,13.29894,14.4964,15.21279,22.84047,19.89339,15.03232,26.48853,23.14653
0,327,14.17677,4.4356,8.226042,8.876533,13.95292,1.430863,7.490149,-1.275208,3.889705,-1.59229,6.547347,6.689119,7.711129,7.785264,15.65583,10.81164,8.608699,18.79628,15.71849
0,328,5.275468,-4.343314,-1.697509,-0.5861942,5.297938,-7.114643,-2.130652,-11.37078,-1.49932,-6.559112,0.7671117,2.368405,5.722692,0.252251,6.498471,5.347038,3.942839,11.65089,9.659745
0,329,13.6885,3.115596,6.507969,7.274696,13.93987,0.4207784,6.014175,-4.888132,7.95853,4.278808,9.342365,11.73212,15.28116,8.95759,15.19662,14.61687,14.08954,20.08371,18.7865
0,330,4.625628,-5.964128,-4.251391,-2.130257,6.03488,-8.616375,-4.809874,-14.84301,0.7197195,-3.102059,2.261299,5.176018,10.33964,0.4402682,6.734555,7.34764,8.658099,12.74312,12.11215
0,331,5.478233,-5.00148,-5.092769,-1.742532,7.192417,-7.83561,-5.001206,-15.96195,4.144763,-0.2641814,6.609922,8.343024,13.60907,2.258903,9.577192,8.836241,12.20324,14.26977,14.23493
0,332,12.88995,3.09728,4.050233,6.373325,14.96714,-0.4240645,1.815173,-8.994974,12.09665,6.565864,15.73977,16.47993,21.75348,9.679075,16.11903,14.692,19.57647,23.3277,22.27829
0,333,19.94531,11.89974,11.91201,14.8704,23.52312,8.251503,8.01428,0.1282447,19.48255,13.71619,23.97119,22.34925,26.1635,15.65788,23.72728,20.89933,24.45751,31.11225,28.6758
0,334,20.55112,12.87359,11.97694,15.7185,24.34474,9.061937,9.15081,1.345224,19.25404,12.48368,24.53463,21.98685,25.46414,15.87891,23.19493,21.47386,24.61199,30.38904,28.49259
0,335,13.4495,6.277858,4.725457,8.682988,17.02572,2.822948,2.787195,-4.758138,13.03096,6.75896,18.04726,15.86424,19.92099,9.346029,15.92429,15.97026,20.28994,22.46274,22.0387
0,336,14.02099,5.966204,6.063849,9.543655,19.01923,2.43977,1.853199,-5.127122,12.74767,7.549848,16.43883,15.82183,20.23723,9.371773,17.76308,17.22453,22.43667,22.86467,23.27794
0,337,29.33735,19.27217,22.27721,24.70616,34.49709,15.26099,18.05188,8.51163,23.86022,19.08284,26.77177,26.45705,28.8581,23.12015,31.5784,28.97875,32.41145,35.18067,34.97428
0,338,34.60326,25.46154,29.26795,30.71602,38.02967,21.17881,26.40672,16.41602,26.01419,19.84238,30.2844,27.76636,28.11962,26.97008,34.40157,30.43612,31.8159,37.88737,36.35521
0,339,27.75544,20.05423,23.08297,24.46342,30.03887,16.09587,21.44901,13.13297,18.29556,11.35976,23.18377,20.38097,21.11553,20.24584,26.40838,23.03417,25.38443,29.91446,28.86027
0,340,25.62109,19.05371,20.93709,22.89645,28.10277,15.08902,19.77249,13.45931,15.48596,7.377147,21.42691,18.39193,20.22866,18.38493,22.47776,20.49164,26.24203,27.62129,27.54079
0,341,26.07728,19.49718,21.05683,23.11667,27.91665,15.83373,21.15056,14.43406,16.11827,8.53515,21.65832,18.93433,21.13082,18.06307,23.094,20.94131,25.24804,27.39065,27.1264
0,342,26.09176,19.38267,20.54375,22.9154,27.83206,15.92633,22.466,15.21346,15.59408,8.779054,21.13579,18.23571,20.65012,17.26459,20.97193,19.9222,25.39462,26.36314,26.41105
0,343,17.08296,10.01812,12.87057,13.36097,17.28658,7.563179,14.92981,7.586644,7.652271,3.499527,10.76174,11.54119,15.48195,10.85677,11.36942,12.09063,20.26778,17.68724,18.86319
0,344,16.63426,11.21386,12.63111,13.38602,16.90531,9.254812,14.51863,8.936485,10.41723,6.821611,13.39948,14.52535,20.01698,11.21859,11.3139,14.49353,23.35194,18.51147,20.4803
0,345,27.22381,24.31412,25.89561,25.94237,27.65687,22.6782,27.06832,23.77853,21.10553,18.0421,23.94736,23.49976,26.80199,21.61168,20.41855,25.34958,29.97515,27.32008,28.62123
0,346,22.46949,20.10576,21.92965,21.63686,22.41622,18.82998,23.81322,21.40181,15.10466,12.49694,17.46006,17.21145,19.64168,17.16494,14.37865,19.40876,22.84837,21.21467,22.09782
0,347,14.27026,12.2408,13.41287,13.40994,14.58175,11.44963,15.19079,14.36096,7.853029,6.529834,9.699248,9.871205,12.5985,9.936894,6.537914,10.92101,17.10435,14.25769,15.08303
0,348,15.33778,13.96679,13.82592,14.49504,15.27866,14.02639,16.47465,17.99214,9.40486,9.375302,10.32135,11.0449,13.78201,11.17385,9.58012,10.8006,16.46982,15.80867,15.38619
0,349,17.1276,15.6847,16.11421,16.29299,16.5695,16.02945,18.93831,20.8188,10.50373,11.20528,10.8225,12.27724,15.3172,12.57117,11.5522,11.92253,18.23387,17.13329,16.77378
0,350,11.64866,9.729746,10.57434,10.02089,9.946221,10.26757,13.27686,14.65322,5.68048,6.769551,5.897759,7.791816,10.99291,8.636391,6.446105,7.028759,15.02127,13.62193,13.06253
0,351,3.137431,0.3764257,-0.3013782,0.05071305,0.5495564,1.518542,3.724759,5.534565,-2.027087,-0.5020981,-2.167612,0.7990287,5.426401,1.135241,-0.4529146,1.595961,10.71493,7.423155,7.562033
0,352,9.845041,6.480479,6.030095,6.324142,7.23112,7.97852,9.875843,12.23633,3.863605,6.52319,3.083441,5.73588,8.516144,8.970114,6.198945,9.014808,16.79142,15.3417,14.65924
0,353,16.84016,11.18098,12.04912,12.39883,14.44395,12.58327,16.75343,17.79751,6.894858,10.27502,5.357947,8.400548,10.14496,13.68781,11.58128,14.45711,19.01631,21.76809,19.75535
0,354,11.62436,5.410061,5.876782,6.446654,8.80525,6.328882,10.36532,10.45243,1.708481,3.659637,1.601247,3.172,5.000356,7.760996,6.487088,11.04788,14.59275,18.84298,16.39226
0,355,14.94681,8.411942,7.626308,9.373372,13.03371,8.763129,11.2271,11.34168,5.900049,6.239471,7.168705,7.50922,9.941624,10.5646,11.36161,16.34954,20.24724,24.35538,22.07716
0,356,15.43752,7.762256,6.524295,8.83435,13.19967,7.827252,11.04192,9.39501,6.802246,6.608368,8.505714,9.050307,12.6954,9.981524,13.1229,15.15901,19.96423,25.62565,22.58659
0,357,20.25592,12.89444,12.61761,14.10171,17.8656,13.30002,16.52854,15.83113,11.40857,12.03972,11.82319,14.05626,17.62104,15.70702,17.45055,18.14812,21.43117,30.20063,25.83786
0,358,11.9748,4.519052,3.410117,5.555305,9.734629,4.882504,8.046288,6.985958,3.80092,3.846017,4.300786,7.146132,11.82796,7.436388,8.879728,10.88721,13.42936,21.89279,17.90688
0,359,5.639761,-3.59875,-6.03563,-2.407448,4.10364,-3.420428,-0.5688543,-2.507662,-1.826698,-1.964884,-0.8739852,3.047271,10.90989,-0.01390487,3.387032,5.235689,12.52131,18.06935,14.94985
0,360,10.87239,0.7513835,-1.118099,2.433314,10.12106,0.7231818,3.394002,0.5533574,4.20025,4.794495,4.880897,9.015698,16.84338,5.590485,9.421658,9.513815,19.05074,24.3553,21.00661
0,361,14.7647,3.413036,3.217528,5.905376,13.42763,3.081092,8.20844,2.559781,6.954255,7.5774,7.139775,11.90938,19.05036,9.374678,12.69854,11.79985,20.04117,26.42259,22.91989
0,362,10.65214,-2.590082,-2.34133,0.6943753,9.648301,-2.995478,3.202508,-4.238438,2.233338,3.289992,1.679906,7.928769,15.57763,5.944065,8.889501,7.921858,17.93781,22.03679,19.53536
0,363,8.917602,-4.66748,-3.739974,-0.653311,9.49403,-5.467676,-0.3893961,-7.708472,1.188454,1.854144,0.1145851,7.663313,16.00337,5.04083,8.361763,7.309546,18.1704,20.30733,18.82929
0,364,11.41111,-2.26361,-1.423901,1.983403,12.62869,-3.090512,1.104407,-5.373952,3.481821,4.050943,2.138982,9.8768,17.77269,7.879668,11.77138,9.564281,19.43413,23.28093,21.15288
0,365,12.34914,-1.52772,-1.674304,2.835603,14.4274,-2.308571,0.6761734,-4.898873,4.400995,4.591432,2.710226,10.61608,17.95605,9.062219,13.52866,11.49088,17.28379,24.92642,21.67293
0,366,7.702839,-4.891345,-6.881618,-1.213162,10.55439,-5.833827,-5.931717,-8.650254,0.4772485,-1.422711,-0.1793733,6.773331,13.55352,6.112067,9.954028,8.714485,12.06324,22.4549,18.26703
0,367,1.128619,-9.12959,-12.89351,-6.477874,5.10334,-10.49145,-14.03176,-14.55775,-2.715415,-6.796198,-1.822834,4.16716,11.64318,2.283106,5.383411,3.485049,10.90517,16.74134,14.06148
0,368,0.8331811,-9.446094,-13.53812,-6.731698,5.082031,-10.62816,-13.3037,-15.21517,-2.274528,-5.161869,-1.763164,3.465413,9.834394,1.926855,5.101902,3.443146,11.11429,14.09818,12.63495
0,369,2.883662,-6.006599,-11.97952,-4.164909,7.717037,-6.379111,-10.98971,-10.72412,1.487856,0.4724687,1.507448,5.178383,9.463122,5.062829,7.640745,6.41689,12.66719,16.39262,14.34717
0,370,5.851254,-2.632108,-8.241265,-0.08598687,12.28168,-3.168677,-7.488336,-7.006524,3.230815,3.067668,3.141258,5.043917,6.693361,7.054235,9.863137,7.249921,12.80593,16.56986,14.50144
0,371,3.630224,-4.959277,-10.83122,-2.191921,10.33062,-5.351235,-8.377762,-8.070266,-0.3822422,0.2799306,-0.5766063,0.8073646,1.9079,3.291653,6.085428,1.910957,7.866398,12.49704,9.858876
0,372,5.246137,-1.991089,-8.885974,-0.1022349,11.55143,-2.363166,-6.384475,-5.258997,2.569654,2.578089,3.299296,3.190779,3.606832,5.700964,7.913224,3.517312,9.255003,14.68206,11.5229
0,373,2.963263,-3.474102,-10.13599,-1.836764,8.866048,-4.140639,-8.289723,-7.166482,0.5145291,-0.4128293,2.097142,0.8573852,1.016811,2.817389,6.026218,1.256535,6.471829,12.2109,8.986364
0,374,-9.816381,-13.22721,-24.63198,-13.5392,-2.686363,-13.77509,-22.49964,-17.14417,-8.372242,-11.88802,-5.014998,-6.457896,-2.651173,-9.030881,-4.446569,-8.355673,1.032574,0.255536,-0.5112015
0,375,-5.364928,-8.229293,-21.37384,-8.676813,3.284821,-9.42572,-20.5454,-14.39511,-2.507252,-8.214664,2.29098,-0.5011718,3.516841,-4.222743,2.91284,-2.514602,8.07777,5.24564,5.425848
0,376,-3.807223,-6.090131,-19.11954,-6.591242,5.185722,-7.625681,-19.16929,-13.43503,0.2122457,-6.174143,5.428988,2.034316,5.184817,-1.215345,5.11993,-2.032879,9.357331,6.313932,6.449518
0,377,-7.943602,-8.700573,-22.91995,-9.996312,1.66469,-9.818831,-24.223,-15.68592,-1.543956,-7.625891,3.398927,0.5000959,4.001109,-2.700212,2.940225,-5.59808,8.988345,3.288444,3.974366
0,378,-5.168725,-5.049958,-20.88048,-7.300221,3.878001,-5.872473,-21.97992,-12.1165,2.750682,-3.905787,8.107136,4.643229,8.028341,1.428197,7.596433,-1.155494,12.72873,7.427034,7.894936
0,379,5.342898,6.278709,-8.825309,4.019232,13.53664,5.536964,-9.861897,0.1482783,12.34146,5.470582,17.35833,13.37521,14.71182,12.02148,18.60031,6.896486,16.53944,15.94069,14.71259
0,380,5.576925,7.847502,-6.781835,5.005807,11.89835,7.413766,-7.165841,3.241193,12.30095,4.971903,17.11339,13.46902,14.56712,12.57568,19.73308,5.714072,14.05319,13.85279,12.53805
0,381,4.010736,6.862133,-5.832013,4.70896,11.28355,5.985644,-8.141661,1.287322,11.35589,4.254504,15.70048,12.21414,12.41462,11.55181,17.65107,3.39888,11.93413,9.929019,9.509621
0,382,6.895912,9.255322,-2.858707,7.372229,14.32504,8.65842,-5.008173,4.427238,14.17878,8.560525,17.54538,15.2186,16.15277,13.57487,19.9558,4.575913,13.46352,13.20063,11.83127
0,383,15.8667,19.15843,7.364669,16.99448,22.90562,18.79951,5.695572,15.89532,22.39996,17.38216,25.71841,22.57948,21.89092,22.8636,26.46759,11.06548,18.42264,21.6051,18.5963
0,384,17.23568,21.01622,9.646588,18.59685,23.43921,21.43836,9.133518,20.90238,22.00538,19.00056,24.59444,21.32703,20.15242,22.82804,25.63943,11.63307,18.67074,22.57981,18.9979
0,385,14.3363,17.61698,9.194119,16.04391,20.19149,18.38932,7.8135,19.68281,17.05818,16.42359,18.01339,16.38273,15.34364,18.57762,20.62766,6.747526,14.63755,18.89824,14.94682
0,386,8.67754,10.90661,3.343256,9.620412,13.8344,11.69137,2.446521,12.94761,10.65211,10.94037,11.60424,9.682792,8.706779,11.6749,14.96746,0.2292181,9.924685,13.74017,9.690411
0,387,10.49834,11.85457,4.379108,10.68252,15.0554,12.6973,5.09502,14.31389,11.38122,12.27744,12.58568,10.28935,10.06991,11.21358,15.46738,2.132766,12.54774,15.40244,11.73235
0,388,18.25551,17.95558,11.50873,17.73296,22.17485,18.90009,14.81373,21.79735,15.70151,17.70044,16.24292,13.98369,12.95649,16.02576,21.3658,7.239463,15.48333,20.29914,16.10786
0,389,10.27123,9.158988,2.540926,9.274619,14.19293,10.12469,7.665374,13.37475,6.642886,8.990766,6.951135,5.021663,4.835349,5.58424,11.97924,-1.028665,5.247188,11.03202,6.808418
0,390,-3.981033,-5.176979,-13.57917,-5.756392,0.07040682,-3.980249,-8.240835,-1.164991,-5.831887,-4.203326,-5.414896,-5.227493,-1.395249,-8.326024,-1.419019,-11.92961,-2.731238,-0.5944122,-3.367199
0,391,-10.52048,-11.59164,-21.80486,-13.26514,-6.966331,-10.19892,-17.10823,-8.923635,-9.266729,-8.241376,-8.163911,-7.453522,-0.8135489,-13.7755,-4.661171,-14.36979,-1.287988,-3.025657,-4.557375
0,392,-8.421214,-9.774725,-21.15944,-11.47435,-3.979634,-8.399888,-16.42886,-7.627621,-6.651919,-5.435717,-5.327001,-5.313894,1.19784,-12.42031,-1.461902,-13.21623,-0.5556527,0.5744068,-2.326695
0,393,-9.443336,-11.16685,-22.84976,-12.71167,-4.250593,-9.937411,-18.04628,-10.05018,-6.816587,-5.215822,-5.411794,-5.816797,0.4750168,-13.37745,-2.594489,-14.47655,-1.041896,-0.1925111,-3.091777
0,394,-3.040596,-4.111369,-15.65347,-5.873187,1.775207,-2.756263,-12.05451,-3.183807,0.2070426,1.261764,1.0736,0.8689023,5.908318,-5.57303,5.413404,-6.213562,1.729555,6.665504,2.649497
0,395,4.007554,3.582937,-5.281453,2.232771,8.629058,5.018678,-4.680079,4.698098,7.466485,9.364265,6.86751,7.437127,10.22433,3.407089,12.18686,1.330581,3.977484,14.01567,8.292009
0,396,10.26313,9.238283,1.305505,8.496346,14.5455,10.93562,3.084967,12.48631,10.59725,13.38085,9.173184,9.890856,10.89978,8.820904,16.28463,4.366984,3.873908,18.7175,11.11879
0,397,-4.367439,-5.207421,-12.58398,-6.497049,-2.334833,-2.899317,-9.446843,0.2980552,-4.978916,-1.563441,-6.864794,-4.998666,-2.940322,-5.991743,1.304395,-11.2215,-10.4171,3.880387,-3.779355
0,398,-13.76751,-15.13165,-22.79371,-16.60098,-12.18385,-12.10082,-18.54119,-8.905772,-13.48698,-8.187409,-16.6293,-13.33123,-10.72572,-13.84731,-7.035144,-19.41932,-15.2159,-5.839469,-11.81724
0,399,-13.26778,-15.68141,-24.70654,-17.42404,-12.10318,-12.33886,-18.37783,-9.023699,-13.41379,-7.62395,-16.304,-13.05235,-9.565867,-13.9099,-6.82,-18.77344,-12.52256,-3.988997,-9.923894
0,400,-10.75256,-12.96977,-22.82248,-14.77682,-8.694334,-9.862196,-16.26143,-7.126014,-10.19374,-4.833942,-12.56074,-9.951499,-6.226303,-11.89824,-5.272789,-15.54159,-9.930779,-1.458781,-7.208893
0,401,-8.514648,-10.76985,-20.44995,-12.63588,-6.535352,-7.439203,-13.13714,-4.689135,-7.367102,-0.7235243,-10.18456,-7.579963,-3.636647,-10.74969,-4.12778,-13.45805,-8.534227,0.5481644,-5.480399
0,402,-1.526927,-3.324215,-11.70228,-5.119862,-0.3059676,-0.1054176,-5.387815,3.169733,-1.388519,5.285383,-3.929454,-2.695011,-0.632917,-4.249489,2.896211,-7.765089,-4.793899,7.555224,0.1466946
0,403,0.6860028,-2.125829,-9.266965,-3.399428,1.032862,0.8703829,-2.357191,4.73965,-1.580904,4.966183,-3.818845,-3.224213,-2.238557,-3.026552,3.783562,-7.329877,-5.092654,9.367064,1.117807
0,404,-4.008116,-8.096445,-15.51529,-9.151301,-3.995577,-5.100461,-6.662661,-1.667073,-6.889207,-0.3687746,-9.282586,-8.22152,-6.922455,-7.979497,-2.805737,-10.18383,-10.00869,4.194468,-3.445265
0,405,-0.7890837,-5.32558,-12.62692,-6.18003,-0.5084221,-2.355043,-3.593246,0.9730194,-3.561969,2.928998,-6.406529,-4.14973,-2.590786,-3.412969,-0.5513079,-8.178451,-7.674778,7.482806,-0.6072539
0,406,2.777522,-1.575135,-8.179879,-2.100737,3.220967,1.253282,0.8823932,4.535032,-0.2216293,5.968952,-3.464025,-0.7265258,0.2643267,0.8762767,2.066457,-4.024624,-5.090868,8.700907,1.619388
0,407,5.061,1.877275,-5.076608,1.40391,6.434683,4.445198,3.725083,7.753247,2.048748,7.352599,-0.6973547,1.012126,1.072517,3.509223,4.160752,-0.3943039,-1.335133,7.997118,3.086419
0,408,-2.585751,-5.683399,-11.80149,-5.759907,-0.4219599,-3.539968,-3.79956,-0.8723429,-5.11209,-0.02941515,-7.661162,-5.975473,-5.986495,-3.408648,-4.659043,-7.896834,-6.587204,-0.9097907,-4.322605
0,409,-12.02698,-16.13716,-22.92466,-16.21422,-8.92691,-14.59913,-15.3945,-14.48999,-11.93944,-7.512856,-13.44904,-11.69774,-9.732856,-11.7131,-13.80682,-15.86016,-8.495389,-8.144653,-9.781421
0,410,-8.157817,-12.04678,-20.98517,-12.96439,-5.127083,-10.51701,-12.69252,-11.31845,-6.381839,-3.269635,-6.928249,-5.225131,-1.908862,-6.325999,-9.102921,-10.16715,-0.6691405,-2.566885,-3.425115
0,411,-2.425787,-5.929997,-15.01063,-6.984306,0.4382252,-4.260941,-6.842325,-5.045455,-0.5113084,2.903137,-1.122456,-0.1365455,2.829077,-1.899946,-2.141343,-3.138289,4.141363,2.948287,2.04328
0,412,14.50522,10.54203,3.792018,10.48302,16.93317,12.12782,11.27339,12.68064,13.19995,17.11493,11.83175,12.46411,13.06698,13.44018,14.25381,11.79682,14.42839,17.97129,15.54696
0,413,15.71787,11.02932,6.563416,11.47779,16.5687,12.52581,14.06086,14.37545,11.28441,15.6548,10.02423,9.512141,7.914256,13.35063,13.68021,10.30223,10.55912,19.21305,14.63326
0,414,4.066967,-0.5883034,-5.809634,-0.2575389,5.157424,0.7771482,1.926425,3.460957,-1.277089,1.749396,-1.959049,-1.468918,-1.261854,1.952562,1.005104,-2.106394,0.7133078,8.158024,3.907539
0,415,2.518758,-2.951317,-10.93267,-2.901933,4.32425,-1.513875,-1.270602,1.327719,-3.289244,-1.507579,-3.262663,-1.847588,0.5619838,1.113071,-0.2910982,-3.475993,3.742426,7.610827,4.539361
0,416,15.60558,10.14882,2.698293,10.69648,17.83488,11.59255,12.15736,15.96798,7.138223,9.352662,7.160355,7.373796,8.088964,12.08614,11.86588,7.240397,11.78719,20.26684,15.32217
0,417,19.83368,13.73639,8.540263,14.40172,19.83776,15.29758,18.54624,21.23331,8.593943,12.14261,8.966208,7.445704,6.475311,13.73502,13.68306,8.26932,11.45699,25.76667,18.01598
0,418,15.79023,10.53932,6.765101,10.74204,13.61411,12.71715,17.2241,21.07678,2.743743,7.448197,2.744724,1.152147,-0.1539747,8.520664,8.269781,2.946695,5.689287,21.46967,12.83779
0,419,5.131884,-0.1753604,-3.78734,-0.8002959,0.9061244,2.610401,7.589398,11.31091,-6.811462,-1.691523,-7.465006,-6.697708,-5.416053,-0.8499129,-3.123928,-5.000908,-1.00805,12.38367,4.6992
0,420,9.393955,4.315502,0.4962587,3.344974,4.916963,6.726855,11.61096,14.17794,-1.151263,3.00474,-0.8113918,-0.9363098,0.7125013,3.693645,1.052769,1.145306,5.646196,17.3134,10.44455
0,421,4.735603,0.6182858,-4.18093,-0.5541505,1.748221,2.654263,5.468521,9.334143,-4.423594,-1.072391,-3.11086,-4.545864,-3.080819,-0.5751984,-2.715732,-3.47403,2.972316,13.46198,6.817759
0,422,-2.385219,-3.910334,-12.88539,-6.526487,-2.959554,-1.944547,-4.736441,3.326322,-6.882182,-5.563623,-4.457218,-6.316058,-3.24917,-5.551044,-7.214679,-8.773046,-2.115643,9.001215,1.945304
0,423,1.908794,1.207057,-10.36327,-2.267201,1.348313,3.198363,-0.7070991,8.045083,-1.058492,-1.086172,2.20031,-0.06872773,4.269968,-1.851097,-1.108142,-4.954875,1.015155,13.1733,5.73104
0,424,4.368015,3.565501,-9.700559,0.2729945,5.484261,4.845246,-1.052897,8.670033,1.333649,-0.9916236,6.123407,2.54213,6.937526,0.4659944,3.533539,-2.63674,4.622502,16.62663,9.245295
0,425,8.234178,8.03907,-5.47533,5.261686,10.7999,8.610339,2.14027,12.25589,4.018143,0.06384481,9.882441,4.020277,5.933242,3.872962,7.952591,-0.6466883,4.378295,18.72846,10.64078
0,426,6.170382,4.997129,-10.23448,2.221536,8.318657,5.426187,0.6692517,9.138566,0.2528838,-4.599496,7.203955,-0.1714763,1.702358,-0.7005398,5.676334,-3.172281,0.7668772,15.07249,7.292503
0,427,10.94339,9.272068,-5.872363,6.926404,12.81409,9.781518,6.315475,14.67764,2.299414,-2.778371,9.162295,1.479003,2.049687,3.741727,9.872881,0.9428787,3.928973,17.63542,10.3413
0,428,12.55971,10.10095,-2.611655,8.632468,14.14558,10.40973,8.055498,15.78714,1.628973,-2.76969,8.167576,-0.2847499,-2.17329,5.215342,10.71406,1.487791,2.88796,19.47194,11.01618
0,429,14.763,11.05455,0.1647312,10.7786,16.92238,11.31013,10.36576,17.46698,1.593896,-1.932922,6.961862,0.03688628,-2.32602,7.638189,11.88337,1.83737,4.323438,20.19909,12.0346
0,430,11.29315,6.574523,-5.535325,6.702301,14.51957,6.686548,6.465101,13.26408,-3.099742,-6.924242,2.486668,-3.857229,-4.947438,2.854087,6.951181,-4.086392,0.03238637,16.20763,7.793139
0,431,13.0713,8.300125,-4.493077,8.917132,18.39813,8.378469,7.150377,14.91284,-1.472578,-4.75928,3.659984,-2.873253,-4.889096,4.605227,7.819887,-2.494473,0.01481554,17.65379,8.786937
0,432,16.04043,10.80576,-1.759403,12.07185,22.40168,11.17605,9.866827,18.71785,-0.03709041,-2.360021,3.860572,-1.560089,-4.260504,7.786035,10.04405,-0.1369941,0.9034166,19.72495,10.52884
0,433,17.34106,12.38241,0.1849912,13.99081,24.71753,12.46828,9.997026,20.17108,0.6914128,-2.023514,4.834394,-1.115497,-4.264872,8.427567,11.6547,0.8140132,1.034029,21.90535,11.88773
0,434,23.8811,19.26718,8.06676,20.43407,29.18173,19.57945,18.76763,28.17104,6.211258,3.734757,10.62453,3.715415,-0.6208457,14.83853,16.46839,7.694627,6.031777,28.19509,17.7147
0,435,22.15994,16.96034,8.132318,18.62326,26.09141,17.24003,19.19456,26.81961,2.71332,0.3994068,6.352327,1.064077,-2.672024,12.28089,11.66896,5.97382,1.459305,25.13345,14.55329
0,436,14.29814,8.811274,0.03786743,9.806187,16.21999,9.589826,12.80126,19.18706,-3.897045,-6.060863,-1.087752,-3.614307,-4.559087,5.442086,2.967299,0.2687101,-4.277236,17.51727,7.934653
0,437,22.8836,18.47099,9.880906,18.66766,23.57509,19.63999,22.15004,30.14821,5.14826,3.478794,8.190833,5.288116,4.483473,14.47042,11.92572,8.266641,5.884567,27.60417,17.46524
0,438,24.78578,20.70078,12.08331,21.03153,25.75049,22.07373,25.35027,33.43747,6.532895,5.549674,9.074865,6.485687,5.424448,16.18234,13.01693,8.30359,6.796364,27.14423,17.46065
0,439,22.96748,20.11794,11.50849,19.78949,22.91037,21.79753,25.61301,34.20337,4.781512,4.472185,7.744151,3.904219,2.349879,13.7225,10.51449,5.223436,5.458245,24.28599,14.80267
0,440,15.41075,13.02005,5.465031,12.53436,14.58594,14.6104,18.6023,26.92247,-2.350282,-2.933395,0.6478403,-3.038194,-4.42781,6.329138,2.629318,-1.255107,-2.23144,17.11533,7.593036
0,441,11.15146,8.35181,0.6052312,7.593537,9.714669,9.808638,14.07594,21.3213,-5.707941,-6.924928,-2.292229,-5.444541,-5.174302,2.013949,-1.861274,-3.514913,-3.8274,14.00725,5.240771
0,442,0.02773075,-2.138695,-12.6647,-4.263151,-1.851906,-0.3903087,1.322959,10.07168,-13.95753,-16.3462,-9.755752,-12.48104,-10.00674,-7.160612,-10.67999,-11.54817,-9.501523,5.875763,-2.119522
0,443,1.452705,0.7843757,-10.64166,-2.20594,-0.152859,2.606375,1.468336,12.75954,-10.67455,-13.41594,-5.691936,-9.629106,-7.268878,-4.784409,-7.799485,-8.675192,-5.566273,10.06462,1.581163
0,444,8.180933,6.833812,-3.013226,4.357198,6.25703,8.935458,9.480711,19.31445,-4.352009,-5.454529,-0.8118203,-3.542437,-1.992028,2.634635,-2.88,-2.067957,-0.6076434,15.55028,7.042097
0,445,9.636217,8.111036,0.04889519,5.89658,6.627923,10.49949,12.88371,21.06475,-2.781658,-2.954002,-0.7792916,-1.516056,0.2302053,4.733449,-2.487765,0.617487,-0.7270677,14.89543,7.151711
0,446,6.886304,6.134574,-1.939695,3.354252,2.592589,8.549547,11.54448,18.88538,-4.923527,-5.922212,-2.625648,-3.918176,-3.305383,3.535426,-5.638453,-1.165798,-5.213654,11.13126,3.420228
0,447,2.152451,1.841115,-5.990757,-1.023144,-2.286496,4.121737,7.009891,13.75288,-8.735193,-9.929502,-6.284522,-8.228555,-8.520697,-0.3930414,-9.179743,-5.761565,-9.73929,5.562446,-1.70315
0,448,11.15605,10.03937,3.81768,7.892244,6.201679,11.98625,17.28781,21.51109,-1.059508,-1.850823,1.400412,-1.39572,-3.110912,7.26841,-0.5568964,0.5802759,-3.913272,12.53281,4.827469
0,449,14.67914,11.74145,6.551937,10.86049,10.35395,13.43043,21.07349,23.08183,0.1681927,-0.2252709,1.94868,0.03240496,-1.911984,9.679936,1.749621,2.797169,-1.774666,13.62825,6.673346
0,450,-1.654888,-4.658147,-11.59265,-5.636483,-4.189048,-3.098948,2.093522,5.316692,-14.07843,-15.08408,-12.15926,-12.93657,-12.6193,-5.599883,-12.59223,-11.86871,-12.37039,-1.323098,-6.6938
0,451,1.425916,-2.016265,-9.647345,-2.782652,0.08825347,-0.6835288,3.230677,6.028121,-9.153441,-10.36479,-7.364903,-7.721395,-7.021971,-1.305478,-7.074735,-8.143972,-6.872418,2.194322,-2.423637
0,452,3.293036,-2.658205,-8.295591,-2.344662,1.037524,-1.679643,5.235089,3.981874,-8.677532,-9.59853,-7.351719,-6.830768,-6.244928,0.3679663,-5.252432,-6.075382,-4.100947,3.196262,-0.4286807
0,453,8.332632,2.699564,-0.7485991,3.217531,5.471036,3.621248,10.04403,8.982409,-3.173743,-4.160532,-2.627748,-0.9170858,-0.6008303,7.099901,0.4447539,1.485239,1.701587,9.010605,5.719752
0,454,11.59451,6.042871,4.118694,7.049072,8.818579,7.039702,13.90755,12.9126,-0.6711279,-0.2928871,-0.9272289,0.236743,-0.7535808,8.031057,3.563793,3.600501,-0.8474457,12.0906,6.730444
0,455,9.502273,3.610824,1.17743,4.518677,6.361476,4.774603,12.25537,10.71784,-2.506908,-1.831482,-3.039162,-1.154219,-1.015673,4.989612,2.053985,0.1376754,-3.982368,9.561273,3.869923
0,456,-0.9989898,-5.139011,-8.826286,-5.255939,-4.259654,-4.24831,1.282834,-0.2659838,-8.830101,-9.581034,-8.428422,-7.1058,-5.730901,-4.461967,-4.885486,-8.957974,-11.52357,-0.9914608,-5.503936
0,457,-9.993266,-11.25496,-17.26361,-12.51489,-11.2089,-11.14949,-10.07262,-9.335775,-12.8188,-16.66659,-10.47787,-9.950444,-6.602394,-11.33153,-11.73903,-15.99117,-15.70544,-8.614493,-11.83354
0,458,-6.286981,-7.547026,-13.96649,-8.819547,-6.822144,-7.800892,-8.912498,-7.819556,-7.100023,-12.53339,-4.839775,-3.312104,0.5808409,-5.708842,-5.279974,-9.852434,-12.3482,-2.987418,-6.659071
0,459,-6.026973,-7.185215,-14.62223,-8.512607,-5.66171,-7.524523,-10.21311,-8.00622,-6.226134,-11.95468,-3.662402,-2.616821,1.272029,-5.511696,-3.140982,-10.16662,-11.99863,-1.617911,-5.912616
0,460,-8.641624,-9.342869,-17.88733,-11.35411,-7.821622,-9.275311,-13.24817,-10.70072,-6.578314,-10.68074,-4.055412,-4.604461,-2.044662,-7.40832,-6.822339,-10.15274,-13.77412,-1.967165,-6.967409
0,461,-2.930813,-2.448904,-11.17983,-4.796583,-1.692553,-1.82943,-7.2365,-2.239063,-0.7672371,-3.445962,1.168684,-0.1662323,0.6933111,-1.058904,-1.351427,-4.060794,-8.791856,4.066362,-1.574084
0,462,0.05339877,-0.157943,-6.890213,-1.948584,0.8974853,0.8718911,-3.584246,1.019538,1.494922,1.038815,1.865452,1.488586,1.048501,2.716336,1.115612,-2.16413,-7.028337,7.04529,0.6874284
0,463,12.36963,11.16569,6.340969,10.19207,12.48764,12.22634,10.2556,13.05954,11.82266,12.43774,11.31231,11.2753,9.41155,14.42918,12.86795,7.162326,1.516492,17.24313,10.20443
0,464,20.89724,20.18387,17.82624,19.95966,20.67167,20.92135,20.53304,23.48251,17.21409,17.93047,16.90765,15.33309,10.9465,21.18121,20.14386,11.89511,4.741058,23.6286,15.24059
0,465,13.96989,12.77211,11.4989,13.05531,13.62901,13.27229,14.3728,16.79598,8.078677,8.243338,7.955953,6.845764,2.434381,14.4878,10.45868,4.541783,-1.370489,15.66239,8.122019
0,466,2.306313,2.270085,-0.6643909,1.626348,2.016012,2.849297,1.946845,6.406286,-1.984433,-3.311086,-1.331738,-1.461659,-3.562167,5.188866,-0.2890226,-5.553763,-5.919561,4.852425,-0.5213011
0,467,-0.4134094,-0.2115872,-3.644141,-1.119689,-0.5345381,0.3502442,-1.901138,3.539968,-3.680295,-5.896813,-2.861676,-1.648457,-1.933749,4.487542,-1.521128,-6.344633,-1.921764,2.722184,-0.355065
0,468,1.490714,1.305971,-0.5847417,0.5361837,0.4306056,2.220507,-0.08506964,5.134646,-1.221229,-2.529354,-1.770453,1.30217,1.374441,7.817559,1.797649,-1.596334,2.083921,5.18585,2.986457
0,469,-2.535279,-2.715115,-5.361156,-3.853721,-4.033852,-1.313766,-3.85492,1.104404,-3.875042,-4.60716,-5.253394,-1.06539,-0.7001307,5.827354,-0.8522154,-3.262032,1.292774,0.2043249,-0.1692412
0,470,-4.727998,-3.685948,-6.477314,-5.165,-5.170079,-1.959606,-6.382567,0.1133199,-3.514346,-3.200536,-5.85346,-0.5953571,0.2487726,5.3685,-3.154323,-3.849561,0.9938468,-1.573966,-1.41431
0,471,3.176835,5.558506,2.687994,4.153371,4.123558,6.559316,0.4961669,7.841178,5.41399,3.84683,4.015324,8.212413,8.221163,14.03869,5.602303,3.023945,6.968389,5.858824,5.543258
0,472,13.32013,16.32581,14.84154,15.353,14.08116,16.52134,12.43725,17.64708,14.52287,11.59719,14.216,16.21528,13.24809,24.55251,14.37054,9.069199,11.86465,12.77593,11.68463
0,473,3.284078,8.228796,6.209934,6.375203,3.593412,8.155824,3.339163,9.0389,6.109715,1.706866,7.100245,7.816129,5.220287,14.66005,4.361384,-0.1512364,3.104584,2.107092,1.819646
0,474,-3.997872,1.307207,-1.581692,-0.9690881,-3.261434,0.9688584,-4.821378,0.4386528,1.079251,-4.324032,2.699414,3.589282,1.926951,9.400503,-2.690641,-5.777844,-0.01483773,-4.483494,-3.42703
0,475,-2.271343,3.053807,-1.553033,1.040483,0.7820929,2.535967,-5.286731,1.955525,2.37482,-3.480029,4.505533,4.480188,2.28982,11.15264,-0.7075677,-4.076375,2.748492,-2.120988,-1.020046
0,476,-1.875596,2.574425,-1.848607,1.358898,2.661515,1.69111,-5.59596,0.9098368,2.02177,-3.722028,4.178782,4.534331,3.371442,10.01413,-1.408136,-3.929618,4.933728,-2.563181,-0.3239284
0,477,10.57198,16.82157,12.66841,15.33938,14.97069,15.70493,8.360441,15.21578,14.32544,7.981325,17.35599,14.97216,11.6328,20.93429,11.19998,9.060957,14.25964,7.557216,9.874619
0,478,12.744,17.68637,14.79097,17.13615,16.80332,16.32922,11.13711,16.70926,13.62123,6.973722,16.34961,14.72557,11.31603,21.65136,12.66359,8.770258,13.10898,8.138574,9.962481
0,479,0.3154833,5.33069,0.1831287,4.407526,5.128161,4.142225,-2.336247,4.460589,1.986496,-5.666703,4.690915,4.635351,3.468036,10.03254,1.064735,-2.496988,3.309877,-4.365928,-1.328708
0,480,0.7466691,6.604667,0.2589076,5.25945,6.562408,5.041528,-4.122159,3.563493,5.280441,-4.158736,8.461917,8.789259,8.307525,12.89032,3.946391,-0.295488,5.323287,-2.503188,0.7458218
0,481,13.48866,20.74834,14.75275,19.37493,19.74672,19.30111,9.216953,19.47116,16.58589,7.575809,19.82281,18.3706,15.68606,23.79895,16.06248,10.0623,11.07887,10.30497,10.65978
0,482,12.02503,19.22701,12.43793,18.55685,20.35284,17.55441,6.798092,18.54283,12.91819,3.638368,16.37112,13.69816,10.15827,19.38718,13.63554,8.873147,5.912505,7.909976,7.671604
0,483,15.88973,23.67511,15.95901,23.36862,26.04484,21.92296,10.25412,23.68475,15.92789,6.583684,19.22013,15.94497,11.28665,22.10037,17.21246,9.730814,3.902345,10.56183,8.498718
0,484,16.77315,25.14096,18.00743,25.15835,27.13526,23.11489,11.98351,25.92818,15.2074,4.872734,18.71757,15.37167,10.12599,22.64949,17.25812,8.416611,1.689103,9.448117,7.080615
0,485,7.226172,15.66724,8.41918,16.08617,19.08507,13.49039,1.837839,16.73413,5.575282,-5.025696,8.804878,7.210263,4.129415,13.05803,6.768652,-1.342884,-4.430342,-0.9623973,-1.657419
0,486,21.14433,29.32721,22.66695,30.05034,32.51151,26.89028,17.73122,30.79014,17.78743,7.185291,21.54066,18.58985,14.38285,24.79866,18.28315,9.382042,4.33304,10.97092,9.059808
0,487,30.41693,37.83486,33.73127,39.21336,40.28962,35.61145,29.99187,41.54941,23.48076,14.53696,26.58512,23.0593,16.80821,31.9652,23.71962,15.87265,7.698002,18.70124,15.0731
0,488,27.05957,34.20387,31.77223,36.36658,37.55217,31.86826,27.0416,39.04312,18.27079,9.505836,20.60227,18.75332,12.97579,28.63961,17.69914,11.61329,3.578579,14.52535,11.05418
0,489,13.39955,21.35693,17.14923,22.60204,24.0179,19.15899,12.79446,26.43536,6.118934,-3.658116,9.1546,8.335328,5.71367,15.52891,3.358389,0.5492873,-4.017423,2.451088,0.6594089
0,490,13.98572,21.46273,15.73716,22.0931,23.70234,19.88271,12.82848,27.92131,6.032671,-3.009636,9.327996,8.028169,5.943726,15.52757,5.416048,1.774302,-0.2228398,5.181534,3.313731
0,491,10.7577,15.75005,11.35245,17.11266,19.16802,14.10333,9.49524,21.82914,1.206623,-7.212764,4.122454,3.886454,2.533111,11.46762,3.044029,-3.172589,-2.57674,2.513553,0.5262855
0,492,-0.5273244,5.084059,-1.887798,5.098165,7.391421,3.866129,-2.83814,10.72126,-6.996675,-15.86912,-3.649607,-3.169781,-2.236967,2.040395,-6.398381,-12.45553,-8.805729,-6.193565,-7.573639
0,493,6.29078,12.13293,4.653267,11.9305,14.26326,11.00653,3.82064,17.00404,1.266665,-7.384823,4.363493,4.664571,5.375813,8.964796,1.710018,-4.535309,-2.847193,0.4665594,-0.9816993
0,494,10.47475,15.87052,10.36234,16.20075,17.72103,14.92799,9.315298,21.62272,3.914863,-3.189631,6.18516,6.05169,5.051081,11.88138,5.056693,-0.7557229,-1.857427,3.845457,1.588236
0,495,5.014036,10.35731,5.157231,10.40417,11.00683,9.953559,4.747245,17.80373,-2.232662,-8.650805,-0.6339154,0.4584133,-0.0002916045,7.153325,-0.311569,-6.585632,-6.352118,-1.385084,-3.596283
0,496,2.600353,6.769773,2.952149,6.78356,6.581725,6.703366,3.171301,14.82852,-5.195824,-10.44009,-4.101379,-2.086126,-2.215688,5.401869,-2.617249,-10.14989,-7.018653,-2.490513,-5.04282
0,497,2.007489,5.13533,2.040192,5.017097,4.219269,4.937401,2.673538,12.21281,-6.017954,-11.6746,-4.369476,-2.924206,-3.321625,5.013824,-2.965698,-8.917168,-6.388207,-1.587944,-4.120642
0,498,5.365542,8.253921,5.714288,7.946616,6.325675,8.238211,6.433619,15.12064,-2.454831,-7.901258,-1.055456,0.2530597,-1.279105,9.836794,1.213326,-4.325006,-2.898334,2.056922,-0.4500826
0,499,3.067601,5.625377,3.900155,5.461752,3.580554,5.766095,4.107726,12.70036,-4.495148,-9.627946,-3.948463,-0.8597906,-1.752236,9.019171,-0.2912169,-7.373476,-4.49441,-0.1262639,-2.554288
0,500,-1.415155,1.447967,-1.445245,0.8765407,-0.4458404,1.642292,-1.851112,7.912831,-7.534992,-13.08124,-6.810287,-3.607515,-4.006675,5.572587,-3.147357,-11.13293,-7.762424,-2.848537,-5.650414
0,501,-7.739696,-4.587318,-7.634299,-5.910435,-8.081556,-3.94597,-7.356792,1.555071,-11.82984,-16.40168,-11.4338,-8.385369,-9.221993,0.8799906,-8.972167,-15.56421,-12.33507,-8.461356,-10.94576
0,502,-13.97129,-10.78377,-13.19039,-12.54676,-15.0453,-9.95387,-13.9171,-5.615082,-15.77512,-19.07358,-15.47128,-12.72522,-13.39818,-4.363246,-13.98827,-20.20634,-14.0639,-12.52718,-14.53667
0,503,-4.284332,-0.3816021,-2.734591,-2.100447,-4.313623,0.3448287,-4.516425,4.347694,-5.249022,-7.995417,-4.79776,-3.212033,-4.910269,5.319398,-4.312862,-10.53589,-3.784892,-3.030385,-4.881987
0,504,0.1215093,4.195474,2.740869,2.963947,0.1056169,4.842117,0.6264825,8.857444,-1.11398,-4.362544,-1.678866,1.365221,-0.3520172,9.752124,0.925138,-5.513848,-2.787081,-1.486584,-2.775042
0,505,-5.137999,-0.3393975,-1.760196,-1.560685,-4.272046,-0.01909341,-4.941617,3.312512,-4.833115,-8.932839,-5.384225,-1.390626,-1.512542,4.489505,-4.547802,-9.382453,-6.945555,-7.395872,-7.619464
0,506,-11.77559,-6.548659,-9.979982,-8.109523,-9.141833,-6.473289,-14.04102,-4.849585,-9.029696,-13.67499,-8.820045,-5.976139,-5.485532,-2.636349,-9.536319,-13.39947,-11.51805,-12.07072,-12.13745
0,507,-0.01381983,4.08074,1.351055,3.313521,2.964947,3.959015,-2.843596,5.449273,1.002392,-3.112482,1.130837,2.772871,1.564903,7.226081,2.873608,-2.525901,-3.19995,-0.4173983,-1.66117
0,508,-0.003194079,4.107125,1.072662,3.404105,3.055996,4.021646,-3.34161,6.162128,-0.1101781,-4.464143,0.222218,1.415075,-0.009771604,6.244684,4.002205,-3.2462,-4.241321,-0.03756268,-1.930127
0,509,-0.8974586,3.862893,0.5325631,2.544978,1.607962,3.821931,-5.511588,5.593699,0.1098579,-5.245523,0.8057578,2.252408,1.118627,7.524975,4.947207,-2.404035,-2.696758,1.568863,-0.4993659
0,510,3.769961,7.136101,5.390896,6.838976,6.988036,6.545027,-2.048865,7.572128,3.949527,-1.316003,4.553344,6.282543,5.559462,10.44198,9.376574,1.914656,1.105565,7.159677,4.530967
0,511,3.875862,6.424811,5.464194,6.62752,7.196354,5.350077,-2.320477,6.136621,3.023376,-2.597331,4.367421,5.352759,4.766003,9.077851,9.114645,0.5615455,1.603239,7.680315,4.854348
0,512,2.813167,3.656432,3.432165,4.349196,5.568821,2.783666,-3.818588,4.185597,0.3079227,-4.652076,0.8924904,3.662714,4.089734,7.909118,7.423111,-1.557153,0.5696406,8.076058,4.486133
0,513,0.5996248,0.7180783,0.5212132,1.688159,3.558423,-0.3450298,-7.012084,0.5939076,-2.081022,-7.550667,-1.539532,1.855649,2.929019,5.423936,5.602624,-3.433748,-2.354676,6.745209,2.7047
0,514,-5.982347,-6.069135,-6.151288,-4.900102,-2.311242,-7.222918,-14.43207,-6.372659,-8.544374,-13.83981,-8.057405,-4.25552,-2.364399,-1.5963,-1.342742,-9.677429,-7.61487,1.148849,-2.831969
0,515,-15.42718,-16.46749,-17.93309,-15.44121,-11.01683,-17.75761,-26.04739,-18.49544,-16.14266,-21.55864,-15.18075,-10.89837,-6.673444,-11.14775,-9.241219,-17.52268,-11.14853,-6.017796,-8.824829
0,516,-9.141498,-11.92386,-12.84387,-10.62384,-5.339727,-13.47891,-21.08473,-15.98549,-9.164203,-14.7229,-8.171367,-3.425373,1.337741,-4.49226,-2.237448,-9.500843,-3.635379,2.526403,-0.5353862
0,517,5.634614,2.842306,1.710227,4.368327,9.087353,1.406528,-5.137778,0.3056974,2.983528,-2.449678,4.138793,7.245764,9.708343,8.542153,12.51633,2.239756,4.995005,15.48467,10.71487
0,518,7.760983,5.418856,5.674662,7.327308,11.35049,4.208521,-1.636054,4.151695,4.21299,0.2299084,4.343602,7.333497,8.329067,9.424376,13.21165,2.964848,1.703584,16.39622,10.10786
0,519,1.749873,-0.06886527,0.9165997,2.074827,5.855948,-1.667092,-7.532678,-2.22092,-1.449799,-6.18415,-1.119464,1.661797,2.129553,4.162206,6.602409,-1.903717,-3.822134,9.159472,3.901999
0,520,-5.101851,-5.537016,-5.286599,-4.065428,-0.8025392,-7.173728,-14.49954,-8.874648,-5.271456,-10.55906,-4.726973,-1.78971,-0.3667893,-1.345929,1.583148,-6.936235,-7.293075,1.782237,-1.873064
0,521,-8.448874,-7.177471,-7.669442,-6.599398,-3.898527,-8.67896,-17.8571,-11.09089,-5.727597,-10.94184,-4.912664,-2.658791,-1.628814,-2.592373,-1.510351,-9.07036,-8.685938,-0.7512486,-4.19014
0,522,-18.6776,-15.49284,-18.44293,-15.64657,-11.40862,-17.42988,-30.53507,-21.62751,-12.12146,-18.80908,-10.1336,-8.928885,-7.17214,-11.13962,-11.69371,-16.22017,-15.20386,-9.347239,-11.87409
0,523,-17.9836,-14.66071,-20.19296,-14.96809,-8.55939,-16.69007,-32.25999,-22.17197,-9.564831,-16.8092,-7.288132,-6.355874,-4.543622,-8.925143,-9.201314,-15.20592,-12.69055,-8.060395,-10.23136
0,524,-14.17131,-11.87997,-17.56022,-11.33497,-2.866508,-14.38823,-30.71941,-20.43526,-6.430466,-14.09068,-4.040403,-2.978622,-1.399565,-5.011512,-4.939431,-13.57456,-9.685119,-3.336059,-6.409339
0,525,-4.863391,-0.7436873,-8.079816,-0.7721373,7.560748,-3.445142,-22.3586,-9.604825,3.923355,-5.044056,7.351853,6.50629,6.705436,5.085723,6.072484,-5.255704,-2.078087,6.07583,2.104657
0,526,5.38355,9.635467,2.111623,9.460448,16.26153,7.65812,-8.872786,3.608493,11.31571,3.611968,14.09571,11.89505,9.341718,13.44084,14.47903,4.070986,0.5992904,13.29252,7.96232
0,527,4.393603,7.700486,1.936016,8.210824,14.44677,6.015158,-7.871291,3.259405,8.054111,1.947749,9.698998,8.363158,5.829593,10.12027,11.64348,2.577455,-2.699836,10.32966,5.158235
0,528,5.53546,9.65996,3.783934,9.672501,14.97582,8.425368,-5.971341,6.675979,9.435269,3.4476,10.54835,10.57132,8.692404,13.14738,12.47981,3.951104,0.2431416,11.31217,6.748259
0,529,-6.406033,-1.27767,-9.3408,-1.919386,4.098599,-2.484479,-18.88394,-4.102771,-1.290821,-8.294795,0.5226492,0.7641488,0.3598404,2.205713,0.6325284,-8.198745,-8.853026,0.07591937,-3.952749
0,530,-8.91278,-4.009508,-14.10229,-4.990413,1.994767,-5.130476,-21.88258,-7.233134,-2.982522,-10.5685,-0.9288594,-0.2594122,0.8710631,-0.7398894,-1.51169,-9.512709,-10.21484,-2.636919,-5.906161
0,531,-11.14182,-6.588042,-16.65285,-7.34292,-0.343436,-7.442868,-23.84223,-9.293234,-5.555096,-12.57659,-4.356902,-2.725574,-1.352004,-3.290938,-2.526986,-11.70167,-13.02977,-6.162222,-8.966565
0,532,-9.54556,-4.981141,-15.81267,-5.972786,0.9356458,-5.960106,-21.26276,-7.759498,-4.335224,-11.70962,-2.265374,-2.014272,-0.8562894,-3.127036,-2.350756,-10.69524,-12.75877,-5.312396,-8.289828
0,533,-11.34226,-6.479094,-17.88257,-7.632418,-0.8086915,-7.840079,-23.20673,-9.928853,-6.353711,-14.97549,-3.158232,-4.38543,-3.501234,-6.15842,-4.502621,-12.18102,-16.27687,-6.884402,-10.40733
0,534,-13.24556,-7.827462,-20.44855,-9.780972,-3.467084,-8.357353,-24.01009,-9.856015,-7.41715,-14.42109,-4.945645,-6.421101,-5.325882,-9.779649,-6.689624,-11.93242,-20.63091,-8.198557,-12.68562
0,535,-6.853164,-1.656675,-12.69813,-3.162988,2.358875,-2.139743,-15.80573,-2.478524,-2.823616,-8.827692,-0.7838793,-2.511718,-2.220888,-5.396999,-2.493849,-7.621357,-18.60996,-3.004916,-8.70014
0,536,5.218976,10.83835,1.681198,9.811117,13.81761,10.81809,-1.085837,12.32079,7.324523,3.187564,7.928593,6.359702,4.485621,6.052029,8.483141,1.838092,-11.66715,5.884035,-0.5467788
0,537,0.6288871,5.509469,-3.127099,4.911699,8.565308,5.688979,-4.092698,8.541823,0.3598335,-3.180114,0.4534509,-0.7040504,-2.620441,-0.5693527,2.64753,-4.569747,-19.6541,-0.6098776,-7.467234
0,538,-12.27963,-5.983951,-16.04086,-7.561814,-3.663553,-5.916861,-18.36523,-3.5106,-10.15563,-14.45405,-8.767788,-10.61975,-10.80464,-12.83525,-10.19195,-16.46194,-27.28946,-10.45528,-17.0247
0,539,-18.1566,-10.82117,-23.76311,-13.41261,-8.978275,-10.77957,-25.49712,-8.320771,-15.0616,-20.71231,-11.92259,-15.23012,-14.11384,-18.90966,-14.96494,-22.19781,-28.82318,-14.62087,-20.67242
0,540,-7.556033,0.4698755,-14.28608,-2.368476,2.339862,0.556089,-14.39463,3.087831,-4.741571,-10.45492,-0.8273394,-6.748981,-7.868333,-8.843337,-3.976139,-12.16018,-19.55998,-6.192597,-11.88951
0,541,-0.4137184,8.379455,-4.230916,5.860383,8.970499,8.64967,-5.487547,12.16828,1.603053,-3.158472,4.39292,-1.308471,-4.716549,-0.7223048,2.106436,-6.442877,-17.28112,-0.772076,-7.579633
0,542,-3.853055,6.896225,-5.605343,3.523684,4.499625,7.646767,-7.189841,11.83472,-0.4506773,-5.0026,1.835887,-3.616444,-7.814743,-2.003529,-0.7679265,-9.623959,-21.34599,-5.468648,-12.06775
0,543,-17.9622,-6.85047,-20.4484,-10.6742,-8.971193,-5.642347,-22.22023,-1.483181,-12.86594,-16.83887,-11.22503,-14.88408,-17.19416,-14.15186,-14.41565,-21.80503,-29.6843,-18.52449,-23.5076
0,544,-15.88234,-5.354023,-19.53749,-9.070563,-5.762303,-4.127481,-23.14908,-0.7307565,-9.713936,-14.32358,-8.567198,-9.757981,-9.948542,-9.280615,-10.76255,-16.73609,-21.02258,-13.82246,-17.27956
0,545,-1.170832,8.912916,-2.392164,6.427811,9.165346,9.853379,-8.867042,13.58418,2.923204,-1.542661,3.090643,2.284471,-0.4841421,6.664905,5.66793,-3.37809,-8.806189,-0.4797475,-4.23728
0,546,-0.6887497,9.294474,1.038316,7.14846,7.49139,10.23056,-6.850752,14.78967,1.734183,-2.879,1.248432,1.385238,-2.160435,7.696329,6.410877,-2.67639,-10.11328,-0.6682907,-4.588442
0,547,-8.835729,1.024873,-5.42966,-1.330045,-2.151373,2.037782,-14.45176,5.940409,-4.87603,-9.36382,-6.082087,-3.743136,-5.578945,1.317583,-2.104017,-8.201305,-15.01418,-7.669316,-10.58065
0,548,-6.143427,4.255352,-2.440533,1.184179,-0.7863185,5.300306,-11.82625,8.934914,-1.139833,-6.69239,-1.799286,0.9160938,0.3931849,4.790439,2.236592,-4.140271,-9.665088,-3.748403,-6.15681
0,549,-19.46356,-8.280216,-16.84208,-12.14348,-13.73382,-7.104698,-26.53682,-3.890972,-12.64571,-19.26322,-12.86421,-9.441181,-8.330061,-6.642987,-9.723637,-15.57928,-18.63639,-15.46815,-16.93495
0,550,-24.31419,-12.53605,-22.39588,-17.12926,-18.41564,-11.54541,-33.07552,-10.24805,-14.14692,-22.55277,-13.94863,-9.133296,-5.951709,-8.088084,-12.55098,-16.58076,-17.1077,-19.02375,-18.28208
0,551,-20.45632,-8.680017,-18.13312,-13.4424,-15.34736,-7.405902,-28.21574,-6.573788,-8.974887,-16.60009,-9.665797,-3.78046,-0.2452519,-3.560446,-8.171199,-12.16813,-13.61025,-16.07925,-14.96375
0,552,-14.58925,-3.411912,-11.46018,-7.591838,-9.458752,-2.406262,-21.85597,-1.360449,-4.392313,-12.00681,-5.281437,0.6902533,3.031437,2.701557,-4.826567,-7.716484,-11.18316,-10.38471,-10.45392
0,553,-4.614513,4.998576,-1.275308,1.74854,-0.1637338,5.693755,-11.05075,7.306177,2.437673,-4.921222,1.747599,6.861718,7.816013,10.909,3.436198,0.7587104,-3.490384,-1.24468,-1.784786
0,554,-8.92829,0.3506612,-6.184129,-2.500932,-3.267126,0.9896883,-16.37835,2.730641,-2.172071,-9.054424,-2.981218,2.3775,4.467762,4.757041,-0.375263,-3.656743,-6.282028,-5.339007,-5.445167
0,555,-15.53667,-6.954595,-15.04209,-10.04913,-10.12049,-6.292411,-22.87783,-5.157365,-8.577648,-15.59387,-8.710032,-4.143587,-1.317989,-3.066768,-6.549978,-9.45503,-10.59711,-12.52705,-11.44861
0,556,-14.66855,-6.351593,-14.29857,-9.501209,-9.950475,-5.758546,-21.78373,-4.873597,-8.1342,-15.34438,-7.856883,-4.276278,-2.010063,-3.113303,-5.427888,-7.401867,-10.28727,-11.47292,-10.4678
0,557,-12.31649,-5.486186,-12.69573,-8.002907,-7.819565,-4.696918,-19.86947,-3.378951,-7.77047,-13.94657,-8.230324,-4.481115,-3.20997,-1.6677,-3.26674,-5.153457,-10.46185,-8.239089,-8.483383
0,558,-14.54819,-8.520051,-15.70207,-10.76679,-9.938487,-7.759394,-23.19728,-6.563809,-10.38895,-16.33772,-10.87315,-6.800663,-4.65977,-4.925056,-3.781184,-8.076799,-11.33947,-9.3879,-9.78062
0,559,-8.341307,-2.532164,-10.27858,-4.577662,-3.713577,-2.01319,-17.12657,-1.521982,-4.442785,-11.42415,-4.70736,-1.298695,-0.05492951,0.7903137,4.270846,-1.414187,-7.873395,-4.966336,-5.19063
0,560,-2.634754,3.516546,-1.839412,1.937377,1.058232,3.821552,-9.719914,4.879266,0.4099556,-6.682459,-0.3619401,3.728287,4.651433,5.951027,10.03773,2.52184,-5.149537,-1.47443,-1.804442
0,561,-12.32795,-5.968414,-10.34558,-7.630296,-8.365341,-5.233481,-20.85242,-4.430466,-7.390094,-13.28462,-9.645512,-2.96205,-0.7672431,-0.9664369,1.683474,-5.26096,-10.51947,-8.623178,-8.548623
0,562,-14.97044,-8.953433,-13.64095,-10.79729,-10.95311,-7.468034,-24.43833,-6.873171,-8.690561,-12.73851,-12.46046,-4.000855,-0.4438217,-3.196552,0.8368807,-3.997041,-8.936376,-9.850143,-8.553606
0,563,-13.23041,-6.387396,-10.28393,-8.175709,-8.853331,-4.878175,-22.6649,-4.229917,-6.630842,-10.35645,-10.73632,-2.666595,-0.2844451,-0.8719406,2.607536,-0.8424953,-7.587651,-8.334846,-6.907311
0,564,-13.938,-7.062283,-10.31362,-8.814393,-9.612881,-5.467298,-23.90713,-4.828828,-7.418601,-10.35722,-11.57077,-4.400556,-3.203231,-1.555116,2.526669,-1.32076,-8.129554,-7.561687,-6.904854
0,565,-8.779129,-3.082011,-6.335458,-4.881618,-5.489607,-1.251813,-19.16501,-0.3495919,-3.021092,-5.514258,-7.358369,0.3381804,1.557612,4.070304,8.176287,1.404073,-4.460574,-0.194743,-1.539483
0,566,1.255726,7.390616,5.201389,5.559552,3.579044,9.055395,-7.36037,10.72348,5.630211,3.008407,1.912665,7.858439,7.068469,13.37155,16.12287,9.535165,1.239641,9.148846,6.325789
0,567,-4.076519,3.200457,1.601728,0.7401447,-2.734923,5.162358,-11.6337,7.890504,0.4217923,-1.835974,-3.159928,2.59582,1.735693,8.751089,9.67122,4.166395,-2.997525,4.867645,1.692
0,568,-6.09655,1.262441,0.8342295,-1.076911,-4.861296,3.511773,-12.88354,6.893558,-1.585703,-2.274044,-5.927799,0.5813068,0.5123389,5.786927,6.465729,2.602346,-3.375295,3.000603,0.2763973
0,569,-19.20613,-11.7577,-13.26137,-14.64298,-17.75329,-9.88994,-26.5866,-8.345597,-12.0012,-13.45438,-15.19963,-9.270827,-7.867307,-6.837415,-6.958529,-9.297702,-12.30777,-8.952369,-10.63562
0,570,-16.75722,-8.598085,-11.47414,-12.21453,-15.08278,-6.883577,-24.62565,-6.631611,-7.240358,-9.119137,-9.326936,-4.975658,-3.465709,-4.000821,-4.06634,-5.611804,-7.115253,-5.436552,-6.651099
0,571,-12.36694,-2.500247,-5.522825,-6.392575,-9.88102,-0.7844616,-20.3288,0.07456496,-2.444361,-4.369859,-4.196452,-1.037483,-0.2047563,-0.1681311,0.9664795,-1.152513,-2.922758,-1.217602,-2.549859
0,572,-10.43442,1.499257,-1.884043,-2.552896,-6.632449,3.152506,-17.82111,3.968189,0.5721867,-1.151881,-1.019162,0.02542156,-1.475084,1.602019,3.702362,0.9395283,-3.050609,-1.764284,-2.744361
0,573,1.409546,12.5147,10.96962,9.662593,5.491176,14.01961,-4.415015,16.24466,8.970523,8.362991,6.755804,6.895891,2.824916,10.86048,13.52032,8.305016,0.5559254,7.509416,4.37648
0,574,0.9489146,10.26012,10.25299,8.437709,4.716375,11.68084,-4.048053,15.41172,4.887908,5.565351,2.581549,2.43456,-2.132914,7.712711,11.50625,2.420465,-2.321927,6.580018,2.021906
0,575,-6.643985,2.198168,1.177018,0.1249187,-3.456841,3.633334,-11.52488,8.360032,-4.060125,-4.115096,-5.401292,-5.259861,-7.262641,-1.770962,3.734433,-5.979702,-5.863829,-0.6383823,-4.090202
0,576,-7.730585,3.471446,-0.03944536,-0.2653577,-5.090858,5.286391,-13.07196,9.73033,-2.589591,-3.428284,-2.79811,-4.812251,-6.806351,-3.195909,5.45887,-3.559451,-5.882211,0.2215306,-3.532324
0,577,-1.640906,8.97603,5.814454,5.14958,-0.1936245,10.76729,-6.251853,15.17097,2.563425,1.703812,2.758147,-0.4419028,-3.467282,1.730714,10.27707,3.251416,-3.002162,7.128377,2.04442
0,578,-2.056475,7.281927,6.457462,4.203935,-1.35109,8.889715,-6.220791,13.60383,0.3701032,-0.1094189,0.1425021,-2.08867,-4.800135,0.758911,7.91559,3.593508,-2.700271,7.058687,2.327509
0,579,-10.2068,-1.171694,-2.426852,-4.036215,-8.969528,0.3575455,-15.18194,4.685113,-7.638403,-8.602387,-7.973179,-9.374772,-11.09397,-7.025407,1.233772,-3.291021,-7.5078,-1.925029,-4.831474
0,580,-11.12166,-3.029536,-5.62354,-5.390748,-7.837881,-1.944245,-18.75241,1.446184,-8.740742,-10.2828,-8.334921,-10.53962,-12.14559,-8.465894,1.036439,-4.550503,-6.713738,-1.517986,-4.440033
0,581,-8.888269,-1.522608,-4.894493,-4.087801,-5.831297,-0.6156892,-16.67455,1.465006,-5.616587,-6.877391,-4.31005,-8.371937,-10.61916,-6.980674,3.096852,-2.466354,-4.060386,1.631212,-1.69459
0,582,3.237636,9.140421,6.752418,7.374961,6.065804,10.15154,-3.839037,13.07746,4.142861,3.895076,4.679555,1.269832,-1.053774,3.113811,13.89544,8.3364,5.131928,12.84284,8.88855
0,583,0.5720791,5.668855,2.801651,4.503518,4.126926,6.91838,-6.628605,11.65862,-1.837809,-1.512185,-1.61603,-5.221469,-8.0978,-1.815168,10.12372,4.240682,-0.4882959,9.624813,4.771629
0,584,1.885345,5.314912,1.831479,4.638382,5.125654,6.686885,-5.230613,12.13048,-2.78252,-2.497466,-2.87246,-5.53729,-7.88398,-1.51359,11.49665,3.223181,-1.194402,10.03191,4.726987
0,585,4.058998,6.688904,4.66225,6.490989,6.476064,7.901623,-1.746583,13.89156,-1.992923,-1.849842,-2.38272,-3.776998,-5.537289,0.6748277,11.85018,3.580751,0.1307925,10.90788,5.814291
0,586,8.753628,11.83135,10.33692,11.60213,10.86563,13.28757,4.409409,20.41054,1.893035,2.618148,1.0055,-0.1062049,-2.307762,5.050856,14.32882,7.5868,1.862256,14.76834,8.940259
0,587,3.031674,5.529495,3.347562,4.815572,3.731711,7.340234,-0.3643453,15.35917,-4.840756,-3.765499,-5.36808,-6.734286,-8.7658,-0.9168659,7.369921,-0.1650337,-4.695415,10.20693,3.099394
0,588,6.541829,9.340884,8.467641,8.466447,6.472821,11.64445,4.721283,20.26097,-0.7849861,2.444588,-2.296331,-3.292229,-5.614458,2.463102,9.411062,2.997175,-1.549945,13.93464,6.317533
0,589,10.68598,13.85949,14.91199,13.1748,9.807697,16.50428,10.5178,26.25652,2.745865,7.256193,-0.01363279,0.03139836,-3.283422,7.425102,12.53036,5.120309,-0.7325935,17.23271,8.48508
0,590,2.157978,6.832421,8.395433,5.308675,0.0566431,9.392289,3.329915,18.90829,-3.881044,0.3177999,-5.836371,-6.632663,-9.663277,-0.538636,4.298143,-4.334652,-7.751139,8.913641,0.2397034
0,591,0.1149721,6.432688,7.906333,4.345448,-2.249012,8.960247,2.376447,18.80234,-4.750763,-1.612731,-6.537952,-6.635969,-8.535273,-1.869485,1.816003,-5.445813,-9.152462,5.555614,-2.08725
0,592,-6.825933,0.8442118,2.530599,-2.057758,-10.01554,3.914179,-4.303564,14.09488,-9.961085,-5.980772,-12.1653,-11.71906,-12.66506,-7.895626,-3.498122,-9.806944,-11.35846,-0.2242184,-6.691192
0,593,-10.67884,-2.562894,-0.7552533,-6.059723,-14.64929,0.9313642,-7.405483,10.61397,-11.67993,-6.309784,-14.31613,-13.61564,-14.02144,-10.86318,-6.835688,-12.35562,-11.43168,-3.621231,-9.078026
0,594,-7.006705,1.994551,3.42376,-1.865289,-10.7674,5.692838,-2.171525,15.08617,-6.317865,-0.04506894,-9.295108,-8.896094,-9.85437,-6.533844,-4.626362,-8.818363,-8.379875,-1.807304,-6.743022
0,595,-5.703608,2.627868,6.009025,-1.105904,-11.4871,6.927251,1.929555,17.97239,-6.830867,1.672744,-10.87176,-9.796203,-10.89045,-6.724032,-5.549856,-8.890505,-8.663998,-1.251215,-6.717472
0,596,-11.86192,-2.220508,2.641204,-5.984625,-17.25363,2.371269,-4.047527,14.10079,-12.01427,-2.203169,-17.13976,-15.13834,-15.96556,-12.8712,-11.57876,-14.40794,-14.8231,-6.788822,-12.59643
0,597,-18.06767,-6.827637,-1.750021,-10.85807,-23.03578,-2.637564,-10.03248,8.971387,-17.04721,-8.680647,-21.54052,-19.53223,-19.85317,-18.08475,-17.57249,-21.04256,-20.02906,-14.00608,-19.01551
0,598,-18.52105,-7.456776,-4.180213,-12.15993,-23.71631,-3.396104,-10.9471,6.873289,-15.40618,-8.353404,-19.03886,-16.30304,-14.59234,-16.22401,-17.74582,-20.13029,-14.07097,-14.27792,-16.96972
0,599,-16.35507,-5.055173,-2.911131,-10.40173,-22.08431,-0.7178735,-9.103932,8.954907,-11.78167,-4.924616,-15.40046,-12.47292,-10.96436,-11.53513,-14.20425,-17.29615,-9.925404,-11.43252,-13.81566
0,600,-13.90683,-1.944584,-0.02087884,-7.861072,-20.4679,2.863347,-6.221681,12.98191,-8.575109,-1.011428,-12.50809,-9.474874,-8.57074,-7.162609,-10.10013,-16.37608,-6.23298,-8.62612,-11.28073
0,601,-5.44918,5.37403,9.365608,0.1086782,-13.24982,10.31032,4.480917,21.24342,-2.364592,6.417459,-7.060977,-3.810665,-4.653621,1.627971,-4.316236,-9.416897,0.1547772,-2.194629,-4.807755
0,602,-7.33805,2.933367,6.642731,-2.294284,-15.11771,7.958904,2.831878,19.05178,-4.335465,4.572878,-9.305305,-4.851133,-4.361514,-0.2416165,-7.727671,-11.34839,-0.9731293,-4.083437,-6.366958
0,603,-1.945161,7.83231,12.45887,2.917756,-10.03254,13.03352,9.346786,23.94604,1.386861,11.32197,-4.752809,1.014451,1.782082,4.849693,-3.334465,-5.678395,2.156691,-0.01135261,-2.296779
0,604,-13.0438,-2.845044,1.591599,-7.99917,-21.13473,2.676917,-1.052243,13.66079,-8.535386,2.12585,-15.35252,-8.345563,-5.910203,-6.625258,-14.52705,-15.00832,-6.455631,-12.04069,-12.78849
0,605,-23.60563,-12.49921,-10.8929,-18.90145,-31.36981,-7.290962,-13.47485,1.812993,-15.19173,-7.007899,-20.5422,-12.89895,-7.430751,-14.70189,-23.4463,-24.29932,-11.64621,-20.25761,-20.07998
0,606,-21.20226,-9.415628,-7.803213,-16.15642,-29.19869,-4.996246,-12.21007,2.527632,-11.42724,-5.844853,-15.13428,-8.699494,-3.26383,-11.09497,-19.639,-20.32475,-7.539956,-16.73234,-16.13658
0,607,-20.63099,-9.523424,-8.002609,-15.74787,-27.12132,-5.495791,-14.9298,0.8594258,-10.75353,-5.814667,-14.1834,-8.086121,-3.010978,-9.894305,-16.95669,-17.56116,-4.472775,-13.58988,-12.95212
0,608,-17.81617,-7.630353,-6.670618,-13.47734,-23.43446,-4.203328,-14.68852,1.035126,-8.6745,-5.112512,-10.96288,-6.579038,-2.85966,-7.201326,-13.07891,-14.56313,-3.155549,-8.337914,-9.212836
0,609,-13.39729,-3.610344,-1.901183,-8.663135,-18.27892,-0.9369563,-11.33798,3.718585,-5.750825,-3.746422,-7.332374,-4.304209,-2.411639,-3.44594,-7.896529,-10.68241,-2.533809,-4.515738,-6.220813
0,610,-16.21035,-6.809699,-5.076966,-11.48044,-20.70147,-4.75334,-16.04211,-1.363534,-8.588679,-8.427181,-9.545612,-6.991687,-5.244895,-6.8155,-7.901648,-12.26261,-6.849596,-6.748187,-8.780328
0,611,-18.83121,-8.82988,-6.752527,-13.18893,-21.49101,-6.973035,-21.20698,-4.703273,-9.4516,-9.560936,-11.12592,-7.738766,-6.554592,-7.130191,-8.652684,-13.03797,-9.32149,-7.839799,-10.22222
0,612,-18.82939,-9.595032,-5.78738,-13.3931,-21.04615,-7.973013,-22.70775,-6.574183,-8.911928,-8.194715,-11.01093,-7.230561,-6.372125,-6.366735,-8.149775,-13.47738,-8.293364,-5.400095,-8.701534
0,613,-6.982337,3.072927,7.228482,-0.8611314,-9.491971,4.504406,-10.74768,6.078299,2.598164,2.577648,0.9594264,3.345066,2.41965,5.291176,4.23978,-2.760639,-1.444999,6.80521,1.458435
0,614,5.111524,15.1915,21.0569,11.88211,2.070044,16.7704,3.688948,20.44958,11.49495,12.30314,9.086049,11.15963,7.992698,15.80849,13.5903,5.940462,2.2315,16.6434,9.050892
0,615,7.536173,18.34103,25.51822,15.27062,4.194606,20.06179,7.945904,25.85217,11.6229,12.83332,8.81814,10.79023,6.120436,17.93132,13.47992,5.313426,-0.3341885,17.70043,8.558462
0,616,1.046954,12.12489,20.77628,9.261317,-2.501262,13.72903,2.523002,19.92651,4.973522,6.910217,2.069622,3.885316,-0.6425421,9.991504,5.705379,-2.68876,-8.118741,10.92147,1.218372
0,617,-18.91481,-6.670339,-0.01640879,-10.04337,-20.05649,-5.444536,-19.78274,-0.194462,-12.18545,-11.73164,-14.04999,-11.31451,-12.468,-8.43657,-14.8582,-19.94095,-18.84077,-7.458972,-14.34369
0,618,-22.23283,-10.08665,-5.809081,-13.88082,-22.21327,-8.833209,-25.07291,-4.737298,-13.52067,-13.73289,-15.06025,-11.64947,-10.77784,-10.98183,-16.78115,-20.93538,-17.46907,-9.55812,-15.04892
0,619,-17.57275,-5.352486,-2.906318,-9.934813,-18.18246,-3.840882,-20.30835,-0.1941225,-7.751282,-8.413775,-8.863441,-5.598379,-4.134483,-5.437164,-12.04778,-14.73445,-11.3161,-4.344666,-9.415573
0,620,-15.03906,-1.754554,1.316921,-6.203319,-15.58907,-0.4710344,-16.6765,3.528882,-5.762119,-7.047686,-6.647022,-4.466308,-4.631691,-3.099411,-9.255697,-12.82251,-11.44431,-4.38107,-9.18968
0,621,-16.26608,-1.346964,1.145527,-6.210246,-16.39423,-0.107953,-16.53697,4.173642,-6.112503,-7.50206,-6.504945,-5.736904,-6.949317,-4.33991,-10.98325,-15.75449,-14.19765,-7.776919,-12.47108
0,622,-16.93152,-0.1075251,0.7983171,-5.652061,-15.94162,0.8475915,-17.89752,4.74804,-4.929482,-8.034617,-4.261351,-4.243429,-5.243512,-3.400751,-10.99207,-16.29596,-13.21667,-8.680601,-12.73111
0,623,-13.62203,4.17672,3.943367,-1.858236,-12.48113,4.973704,-15.28149,8.252186,-0.3497607,-4.949943,1.029185,0.6997171,-0.2720158,1.772845,-5.266416,-12.38426,-7.235645,-5.888859,-8.722342
0,624,-10.30626,7.220132,7.483036,1.270802,-9.442456,8.028938,-12.64982,10.49076,3.546324,-0.771499,4.66744,4.057571,2.035442,6.091022,-0.02112271,-8.152228,-3.465529,-1.948568,-4.841905
0,625,-11.03049,5.910603,5.690854,0.27486,-9.520812,6.361567,-15.17425,8.541988,1.832625,-3.452335,3.735446,2.197305,-0.5008101,5.362454,0.8141644,-10.06852,-4.156276,-1.469054,-5.058348
0,626,-10.04401,4.881521,5.254141,-0.08374383,-9.021089,5.110779,-14.97217,7.436918,0.6004661,-4.836382,2.772096,1.649224,0.001894217,4.50104,1.907232,-9.922396,-2.198659,0.6510612,-3.105958
0,627,-10.55417,2.283771,1.661172,-2.160553,-9.287041,2.250652,-16.95765,3.386502,-0.9702786,-6.853309,1.753978,-0.0970251,-1.878264,3.100523,2.500288,-9.034121,-0.8270175,0.3961826,-2.464837
0,628,-2.819727,10.46646,8.56826,5.875246,-1.170171,10.24968,-9.739985,11.258,6.110758,-0.4327426,10.04838,5.334068,1.866566,9.1766,12.24965,-1.278633,6.083692,7.563255,4.622416
0,629,3.182075,17.3091,16.01453,13.00263,5.673347,17.36053,-3.920687,19.62957,11.43683,5.714423,14.40921,10.24137,5.853581,15.45981,19.24517,2.50034,9.470988,13.082,9.035453
0,630,2.764263,14.7968,13.742,11.27426,4.571495,14.73832,-3.226495,17.92295,7.850491,2.314635,10.87152,7.026596,3.246818,12.11406,17.43594,-1.642627,5.866061,11.05388,6.335848
0,631,-1.317023,11.49469,10.7819,7.663706,0.6101847,11.50971,-7.969929,15.08342,4.384182,-0.975862,7.501735,3.741978,0.2962776,8.627634,13.54463,-6.238798,2.86265,9.150742,3.529804
0,632,-2.461381,10.64051,10.40006,6.799357,-1.085402,10.46816,-9.135133,14.3768,2.679439,-3.563149,6.135964,2.402364,-0.1307366,5.610088,13.54799,-7.303643,0.04680105,8.302447,2.119754
0,633,-2.872899,9.70801,8.076993,6.047687,-0.2886831,9.404563,-10.69082,13.70156,0.9844738,-5.548785,5.242928,0.5504296,-1.6671,3.737181,12.31319,-8.001236,1.035674,8.571479,2.516678
0,634,1.646915,14.36857,13.22656,10.51464,3.156423,14.22218,-4.770018,19.19036,4.949375,-1.643844,9.11933,4.962656,3.187096,8.418927,15.69159,-3.019217,6.235419,12.23112,6.896884
0,635,3.518463,16.44771,15.89184,12.77007,4.804676,16.37757,-1.817919,21.82764,6.317114,-0.6763642,9.737948,7.050371,5.361652,11.46011,16.28883,-0.04496389,7.052382,12.03146,7.656984
0,636,10.54217,24.38367,26.26033,21.36208,12.10135,24.33807,7.024777,31.19151,12.01718,5.69737,14.14562,12.37881,9.231516,18.65365,20.99548,5.827731,8.92404,16.48808,11.49745
0,637,1.777803,16.90865,20.98438,13.78696,3.069974,17.0547,-0.9528017,24.19604,4.552943,-0.710112,5.5924,4.870524,1.921709,10.20274,11.14751,-0.6589314,-0.477739,8.468209,3.192089
0,638,3.786552,20.26672,24.63034,16.66893,4.507335,20.68712,2.163321,28.1693,7.724106,2.452674,8.300882,8.434274,6.010277,13.43151,13.96753,2.760596,3.597012,9.02646,5.277606
0,639,2.527548,19.15636,23.5263,15.42461,2.905596,19.5095,1.216887,26.75192,6.877904,1.021667,7.493703,7.985419,5.083198,14.23838,12.66258,0.4847811,2.078019,7.24876,3.503259
0,640,-1.136916,16.47008,21.02785,12.17213,-0.8913778,16.82112,-3.002942,24.02213,4.592368,-1.526477,5.526427,6.134001,3.867112,11.5883,8.678035,-2.806611,-0.5346562,6.166473,1.486182
0,641,7.580044,25.7256,31.30673,21.63918,7.81939,25.80292,5.816191,33.26881,12.66543,6.089345,13.78951,13.56761,10.02592,19.67644,17.50201,4.698776,3.961942,14.94352,8.667132
0,642,17.04744,34.65365,41.65586,31.35542,16.85821,34.76747,16.68206,43.60917,19.03423,13.34572,19.66582,18.35045,12.43471,26.53015,26.55643,11.09472,6.052262,22.48617,14.20373
0,643,16.2013,32.97861,42.30194,30.84377,16.41268,33.44435,17.03228,44.09799,15.12991,12.09433,14.17109,13.07745,5.484206,23.40733,23.75932,8.600075,1.548844,20.15387,11.04098
0,644,4.13764,20.61996,31.22539,18.65441,3.771833,21.20813,6.265289,31.82119,3.258173,1.49135,1.813075,1.03988,-6.333509,11.015,10.53256,-2.785256,-8.188964,7.141878,-0.6944591
0,645,-8.699154,6.47691,17.45365,4.582919,-9.384574,7.030776,-7.12669,15.99755,-7.827956,-8.767843,-9.447217,-9.206555,-14.71368,-1.252251,-2.108185,-13.11589,-13.99707,-4.666927,-10.23741
0,646,-7.476932,6.190936,18.9163,4.687268,-9.290987,6.956382,-5.924971,15.05673,-5.617973,-5.277057,-8.750493,-5.702779,-9.31259,0.3711317,0.2159142,-11.21222,-11.19584,-2.561658,-7.824088
0,647,-7.215374,5.977241,19.42577,4.618384,-9.431864,6.912126,-5.520245,14.70956,-4.884305,-3.997297,-8.956175,-4.483956,-7.661551,1.306917,0.3954332,-9.988342,-11.53533,-2.128298,-7.464527
0,648,-4.15184,8.421075,21.41181,6.665705,-7.760238,9.552439,-2.904627,17.11238,-1.87296,-1.451934,-5.700917,-0.8370033,-2.854275,4.277868,5.28202,-4.616067,-5.562386,2.351947,-2.303815
0,649,-4.127007,8.401971,20.0776,6.128963,-7.98701,9.543738,-3.984342,16.14804,-0.5572675,-0.9612366,-3.902646,0.8828498,-0.3125937,4.834792,6.96553,-2.509407,-3.65976,3.847865,-0.5383474
0,650,-5.017798,7.6168,18.55999,5.386195,-7.807358,8.016934,-6.048279,13.7698,-0.9204365,-2.923542,-2.670643,1.008143,0.5729187,3.567647,5.942149,-5.144839,-2.624234,3.547091,-0.6494371
0,651,3.414866,16.49084,27.18316,14.41519,1.333358,16.35246,2.567597,22.03232,6.69695,4.153306,6.381733,6.894375,4.200642,10.3514,13.78604,0.1572962,2.145709,11.33239,5.666352
0,652,6.037468,18.81353,30.70099,17.29958,3.966325,18.6862,6.613212,25.96679,6.542181,5.230181,6.289592,5.293624,0.7502327,10.67427,13.79797,-0.5327703,0.7984538,13.08651,5.890433
