type,latency,P7,P4,Cz,Pz,P3,P8,O1,O2,FC6,F8,C4,F4,AF4,Fz,C3,F3,AF3,FC5,F7
0,1,-34.79686,-23.34813,-3.493602,-18.05173,-9.293515,-38.17022,-71.7102,-78.25336,10.88223,2.699816,17.11739,12.91399,0.03236185,-3.253263,-0.7424415,-5.220785,-7.56354,-10.69994,-8.028133
0,2,-38.04671,-26.60661,-7.483793,-21.29157,-12.09215,-41.38046,-75.64978,-81.3224,7.535499,-0.6506082,13.84103,9.288793,-3.213676,-8.069937,-2.475517,-9.242174,-12.49579,-13.5084,-11.75273
0,3,-34.94499,-23.24899,-4.469717,-17.89888,-8.497531,-38.49611,-72.28835,-78.55771,10.02319,0.9505309,17.51794,11.07814,-2.730847,-5.47137,-1.441887,-8.31778,-11.46904,-10.89016,-9.852026
0,4,-26.11198,-15.04988,3.317333,-9.682123,-0.06386972,-30.41112,-63.46049,-70.46485,17.4807,8.122767,25.85382,17.83117,3.452382,1.738403,6.540767,0.9322006,-1.627578,-1.901796,-0.4218142
0,5,-25.08606,-13.54066,4.008555,-8.780451,-0.2613332,-28.56746,-61.09042,-67.51861,17.36453,7.656792,26.35732,17.03401,2.048906,2.006922,6.673737,1.314229,-1.294304,-1.390886,-0.04478286
0,6,-18.06013,-6.223316,10.45465,-1.516858,7.061123,-21.77926,-53.61536,-60.58739,22.99762,11.96192,33.60537,21.58829,4.556208,7.93576,11.48222,4.731169,1.320192,4.847689,4.679785
0,7,-21.94957,-10.21572,6.64589,-5.028754,4.334337,-26.0918,-58.21325,-64.88918,18.31619,7.216105,29.20633,16.60818,-0.600275,2.641638,6.908502,0.6400682,-2.355964,0.6942645,0.8290732
0,8,-18.71151,-6.893938,9.63604,-1.744354,7.534455,-22.33368,-54.10853,-60.19361,21.02674,10.50116,31.26785,19.51496,3.106832,5.49459,9.49021,4.872053,2.207129,2.563326,3.922359
0,9,-14.6164,-2.443107,12.81503,2.449722,11.78414,-18.06384,-49.14143,-56.41248,25.70695,14.49804,36.56664,23.79903,6.590668,9.845336,13.23446,7.775838,3.923165,4.699942,6.006284
0,10,-18.15572,-5.910743,8.844931,-1.087381,8.636328,-21.60036,-52.30452,-60.0813,22.69403,11.35691,33.87933,20.67531,3.713055,6.240899,8.72206,3.394119,0.05255186,0.7799864,1.94168
0,11,-18.76973,-6.32656,8.25241,-1.891254,7.57611,-21.84519,-52.17096,-60.16831,22.7693,11.48187,34.24208,20.71933,4.253998,6.191234,6.846594,2.740373,0.7621231,0.7167625,1.863837
0,12,-20.51535,-8.478812,6.397682,-3.828723,5.760499,-23.50799,-53.28346,-60.81252,20.61691,10.26174,30.8645,19.30441,4.423192,4.085817,4.840662,0.7364436,-1.022182,-1.61986,-0.3027956
0,13,-26.50478,-15.08527,1.979866,-10.23706,-1.462885,-29.8567,-58.32965,-67.19605,15.46703,6.170631,24.52346,15.26831,2.166466,-0.9506366,-1.138662,-4.06237,-4.348305,-7.140084,-5.087801
0,14,-20.42549,-10.01196,7.66265,-4.685683,4.824144,-24.97625,-52.12972,-62.75606,21.53826,12.37138,30.16164,22.0672,9.154294,6.232859,3.528995,0.4598081,0.3084974,-1.293791,0.2218578
0,15,-21.86033,-10.44319,7.126673,-5.511168,3.668472,-24.88123,-54.16219,-62.09926,21.21927,12.70406,28.9664,22.14847,10.11608,6.202261,3.352661,1.698785,2.087312,-1.633203,0.6592515
0,16,-21.74212,-10.98509,5.763309,-6.245397,3.485402,-25.03396,-54.28686,-62.53944,21.9485,13.93182,29.18581,23.27922,12.05167,7.252634,4.220036,3.75885,4.603918,-1.099579,2.004164
0,17,-24.77106,-13.52204,1.920448,-9.266247,0.6984259,-27.30561,-57.51421,-64.66261,19.65215,11.54287,27.03805,20.84081,9.673152,5.065359,1.321479,1.109184,2.135718,-3.598873,-0.6584122
0,18,-29.635,-17.72861,-2.050007,-13.6929,-4.393126,-31.3804,-61.30984,-68.22154,15.263,7.161631,22.46366,16.65386,5.686181,1.016857,-4.513994,-4.893668,-3.702299,-9.074194,-6.459827
0,19,-34.26109,-23.67499,-6.923421,-19.14911,-9.84559,-37.11889,-65.86855,-74.03384,10.00824,2.761063,16.05648,12.17896,2.268091,-4.095114,-7.76901,-8.463856,-7.546926,-14.03555,-10.72249
0,20,-34.33026,-23.15161,-6.792348,-18.53689,-8.807421,-36.51479,-65.56831,-73.09038,10.36338,3.329113,15.96806,12.76918,3.186969,-3.550773,-8.920416,-8.236962,-7.120224,-15.69091,-11.43749
0,21,-32.81711,-21.73198,-5.235208,-17.34073,-8.025287,-34.81192,-63.83176,-71.08432,11.67686,4.84836,16.97708,14.35311,4.697336,-0.7447435,-7.808974,-5.645951,-3.94492,-13.65831,-8.9575
0,22,-39.59447,-28.78381,-12.59852,-24.28688,-14.72928,-41.62152,-70.92315,-77.99574,4.823658,-1.568644,9.31362,7.891021,-1.614063,-6.844766,-13.31199,-10.2117,-9.003457,-21.37733,-15.22752
0,23,-37.93916,-26.64948,-11.32442,-22.42886,-12.97467,-39.42665,-68.35059,-75.83089,7.102067,0.5295409,11.79953,9.97284,0.4501193,-5.021676,-12.11315,-8.574962,-7.605535,-21.25711,-14.53858
0,24,-39.03287,-26.79907,-12.69771,-23.13929,-13.96999,-39.38573,-68.01845,-75.34621,7.253606,0.4671878,12.38079,9.776744,0.993531,-6.674384,-13.87319,-11.65275,-10.81918,-23.35942,-17.45243
0,25,-27.03231,-15.15017,-1.342103,-11.80074,-3.207317,-27.6365,-55.89969,-63.25994,17.85106,10.74028,23.74331,19.71412,10.13226,4.361511,-2.055703,0.8106452,1.818189,-10.40272,-4.604439
0,26,-30.51025,-19.81811,-5.094181,-16.00681,-7.204394,-32.63232,-59.86575,-68.66573,12.62882,5.334376,18.87845,14.40981,3.71779,0.774518,-6.522637,-2.073384,-0.3160157,-13.46196,-7.046178
0,27,-31.03173,-20.512,-6.44917,-16.8912,-7.985715,-33.43943,-60.73754,-70.01364,11.95651,4.214609,18.79272,13.369,1.682061,0.7421454,-6.848754,-1.793371,-0.1420743,-13.79092,-7.047904
0,28,-28.03137,-17.5124,-4.487908,-14.25779,-5.573022,-29.99567,-57.46226,-65.46325,13.64193,5.987189,20.71844,14.53482,2.938932,2.356841,-3.990752,1.550228,3.40176,-10.47281,-3.67881
0,29,-17.24754,-6.038641,6.792198,-2.871835,5.674029,-18.87816,-46.3922,-54.04554,23.75266,15.29613,31.94596,23.8928,11.07533,12.59949,4.660226,10.52119,12.58366,0.1584476,6.254754
0,30,-14.92596,-3.645952,8.512006,-0.7675633,7.80661,-16.51485,-43.79337,-51.25883,25.22294,16.21473,34.30338,24.86278,11.08648,15.21964,4.771583,11.64613,14.56888,3.071991,8.579697
0,31,-18.78719,-7.752913,4.480624,-4.48889,4.528981,-21.00212,-47.30547,-55.57017,20.35125,10.88498,29.9432,19.73925,5.376323,10.32751,-0.8916857,4.801935,7.515376,-1.697924,2.836181
0,32,-22.71228,-9.86133,1.483326,-7.203181,1.15321,-23.24403,-50.61542,-57.68986,17.8972,7.679272,28.3414,16.603,1.786431,6.398954,-4.8008,-0.9142596,1.101215,-6.11957,-2.666738
0,33,-33.04588,-20.40874,-10.05614,-18.08394,-9.523146,-33.45524,-60.98827,-67.91367,8.126184,-1.896505,18.41204,6.915983,-7.304571,-3.671899,-14.15605,-10.85012,-8.821907,-15.99575,-12.69666
0,34,-33.86987,-21.17803,-9.43818,-18.42364,-10.24628,-34.00819,-62.27192,-68.59587,7.584697,-1.391073,16.28839,7.157112,-6.17947,-4.138316,-12.54539,-7.414579,-5.762257,-17.90992,-12.00788
0,35,-23.82162,-12.33424,0.5092624,-8.936368,-0.6638696,-24.9485,-52.20248,-59.57571,17.03069,9.077774,24.25203,17.4587,5.418768,4.946918,-0.5735181,4.189381,4.819485,-8.943281,-1.94859
0,36,-25.0354,-15.06246,-2.672812,-11.688,-3.296128,-27.40395,-53.64331,-62.00083,14.46962,6.689616,21.66963,14.86097,2.94093,2.680701,-0.5572894,3.075274,3.29422,-9.154468,-2.649284
0,37,-26.40438,-16.37746,-4.221182,-12.86484,-4.218896,-28.79131,-55.54242,-62.88222,12.10835,4.089507,19.49373,12.25159,-0.1297425,0.467929,-2.051208,0.1169772,-0.2550687,-10.11447,-4.703526
0,38,-21.82801,-10.8292,1.567726,-7.589052,0.09000089,-23.54939,-50.73794,-57.67878,16.58161,7.798901,24.91125,15.99676,2.325149,4.745163,2.40494,4.114362,3.291659,-5.493663,-0.5071814
0,39,-27.0811,-15.90763,-2.914141,-12.63289,-5.609181,-29.02838,-56.33479,-63.90033,11.23153,1.828484,20.03459,10.36206,-4.721801,-0.1582502,-1.700288,-1.161126,-3.039833,-10.75471,-5.980494
0,40,-27.47301,-15.94653,-2.764004,-12.56413,-5.724161,-28.93165,-57.64316,-63.52268,10.38842,1.196299,18.52664,9.694553,-5.754356,-0.1753287,-0.4189617,0.01043106,-2.873245,-11.08726,-5.798203
0,41,-21.42257,-10.23134,2.989865,-6.488167,0.3349764,-23.61871,-51.10962,-58.38236,15.29606,5.530042,23.86221,14.25587,-2.224063,4.58318,5.364335,3.91824,-0.5892383,-6.799,-2.039684
0,42,-5.088434,7.788614,18.92724,10.95953,16.79046,-6.310181,-33.4434,-40.08176,29.28573,16.89354,40.75173,25.96114,5.585905,18.42634,19.20233,12.92115,5.271952,7.686917,8.862732
0,43,-6.590085,7.589931,16.35598,10.2177,15.90351,-7.071032,-34.58805,-40.19231,26.14924,11.59445,40.2234,20.81731,-2.596907,14.8997,15.77787,5.679594,-3.826298,5.553937,3.681586
0,44,-9.402991,4.956758,12.32918,7.406826,13.46804,-9.915532,-37.33039,-43.15725,22.85306,7.586617,38.04392,16.59842,-7.696636,10.70338,12.56304,1.919568,-7.989429,1.985148,-0.08425076
0,45,-21.75718,-7.975559,1.80739,-4.977529,0.8966588,-22.92202,-50.42723,-57.07031,11.39746,-2.84001,25.4783,6.05109,-17.06136,-0.8733501,1.721135,-6.481454,-14.88835,-9.641669,-9.566309
0,46,-19.20266,-6.34394,4.805633,-2.78443,3.415257,-21.30654,-48.65064,-55.68514,13.59921,0.1243361,26.98515,8.715724,-13.33177,0.6833458,5.280521,-2.317023,-10.10425,-6.233581,-5.482224
0,47,-8.768463,3.724724,12.8656,7.105309,13.74941,-11.31065,-37.70886,-44.62766,21.71932,7.076703,36.26681,15.99877,-7.644925,9.658452,13.79112,2.130078,-7.611781,3.940108,1.328417
0,48,-4.24015,8.591329,17.47081,11.8856,18.49275,-6.829181,-32.60658,-39.94915,25.80899,10.2914,41.54602,19.44818,-5.103045,13.46953,16.13569,3.030273,-6.697517,8.553405,4.115461
0,49,-2.055658,10.23803,18.45146,13.4875,20.41201,-5.081989,-29.82154,-37.98379,27.38828,11.89564,43.46527,20.75382,-3.488839,14.51653,17.39321,4.849686,-4.380208,10.23689,6.014327
0,50,-12.01477,-1.146845,7.633184,2.23393,9.416957,-15.56301,-39.74228,-48.14167,17.51175,3.98744,31.80933,11.89365,-9.428759,4.187368,9.049097,0.4570655,-6.567913,0.6936555,-0.3682804
0,51,-11.24998,-1.085012,7.875917,2.40294,9.891453,-15.01509,-39.29558,-46.97072,17.74432,5.075067,31.05168,12.75518,-7.47463,5.249418,10.01113,2.570049,-3.729747,2.315794,1.721451
0,52,-18.95753,-8.816452,-0.1921962,-5.517629,2.227165,-22.45069,-47.3958,-54.15517,10.35439,-1.899641,23.51403,5.403767,-13.98585,-2.549683,2.560002,-3.851749,-9.001579,-4.263489,-4.511209
0,53,-16.84259,-7.155519,1.227693,-4.065538,3.78643,-20.26064,-45.15648,-51.53061,12.61479,1.173383,25.3007,7.876881,-9.990274,-0.9289356,4.995215,0.3655369,-3.432358,-1.276672,-0.6114099
0,54,-4.440456,5.965592,12.01161,8.548581,17.00211,-7.171329,-31.78665,-37.95059,25.05283,12.65086,38.81326,19.67022,0.8085887,11.99775,14.47667,9.435338,5.230021,9.922308,9.281364
0,55,-22.06113,-12.38018,-5.260275,-9.613097,-0.9026883,-25.11459,-50.11661,-56.07748,8.030611,-3.152648,20.54895,3.604289,-13.73329,-4.270848,-2.349655,-4.242368,-6.31739,-6.397722,-5.080769
0,56,-20.73263,-12.0554,-4.801219,-9.204929,-0.4445047,-24.41061,-48.9428,-54.96119,8.482654,-2.050872,20.4812,4.269993,-12.06609,-4.13757,0.01250965,-2.00314,-3.856966,-4.209081,-2.776156
0,57,-22.7167,-12.52214,-7.719026,-10.49281,-1.850415,-24.79548,-49.54895,-54.56861,7.018323,-4.445764,20.35762,1.698387,-15.16824,-6.921485,-3.761906,-6.833003,-8.997079,-7.573599,-7.211445
0,58,-20.95663,-11.85536,-6.11189,-9.514164,-0.88521,-24.11016,-46.95374,-53.76315,8.168036,-2.957742,21.19351,3.33169,-12.86649,-5.403306,-3.270992,-6.418589,-7.944657,-5.858874,-5.895132
0,59,-17.62991,-9.177216,-3.195937,-6.988285,1.314249,-21.19786,-43.03767,-50.64211,11.26112,0.367731,24.19347,6.636103,-9.050059,-1.977986,-0.3581373,-3.421367,-4.359713,-1.752116,-2.197421
0,60,-19.67415,-10.92204,-5.491167,-8.862813,-0.1741024,-22.84242,-46.34531,-51.92787,9.059465,-1.806471,22.28205,4.004608,-11.40825,-5.242369,-1.369249,-5.213135,-5.929078,-1.918964,-3.131363
0,61,-20.35554,-12.65144,-6.747634,-10.12792,-0.6234632,-24.74348,-47.60226,-54.18348,7.90329,-2.781329,20.98309,3.157704,-11.99516,-6.158075,-2.516447,-6.453358,-6.7151,-1.986273,-3.523438
0,62,-20.17519,-13.60265,-7.090532,-10.93063,-1.503193,-25.50101,-46.37004,-54.51613,7.136298,-3.081658,20.07399,2.636699,-11.63006,-6.78203,-3.912736,-6.708168,-5.603715,-1.776895,-3.092295
0,63,-23.04312,-16.0476,-9.325947,-13.49582,-4.140499,-27.33607,-49.6907,-55.6484,5.283752,-3.919715,16.76455,1.641576,-10.93699,-8.675798,-5.207876,-8.104065,-6.890044,-3.691133,-4.896583
0,64,-10.15411,-3.501039,2.282007,-0.8792449,9.167212,-15.18781,-36.41247,-43.70087,17.80101,7.784671,30.38024,13.57582,0.4598731,2.796224,6.19559,0.7881672,1.206894,8.82863,5.589322
0,65,-8.717211,-1.07568,3.510551,0.7811276,10.22262,-12.78117,-33.31406,-40.55208,19.07973,8.048314,33.12202,14.04852,-0.2870533,5.055413,3.866384,-0.6579499,0.8063688,9.984804,5.651234
0,66,-6.90402,1.044855,4.025348,2.72202,12.84009,-10.52887,-30.80591,-37.60799,20.67562,9.411146,35.07188,15.31499,1.109482,6.249126,3.937907,-0.862027,0.5471531,10.61503,5.753464
0,67,-1.797083,7.336605,9.173665,8.734384,18.72932,-4.453291,-24.59328,-30.59306,25.30477,13.12237,40.9393,18.95569,4.044687,9.680984,6.720511,0.1081088,1.015217,14.57089,7.987958
0,68,1.397824,11.16869,12.53319,12.57881,22.86266,-0.5809878,-20.72653,-26.87856,29.94756,18.00269,45.12432,23.8496,9.826957,13.01642,10.04914,3.414963,3.832752,15.78965,9.930243
0,69,4.952552,16.11445,15.29377,17.00819,27.632,4.719003,-16.09367,-20.75629,33.99892,21.98861,49.34617,27.42499,13.4508,16.83883,11.87886,8.21494,9.028272,16.66072,12.68996
0,70,3.064563,13.82921,12.82612,14.73429,25.15948,2.311863,-16.69333,-23.246,31.59571,19.34341,47.47808,24.67746,10.54601,13.86535,8.887025,5.446962,6.381785,13.1898,9.628769
0,71,-10.17296,0.3613759,-1.270204,1.208019,11.63793,-11.03099,-29.50057,-36.34074,17.57091,5.245362,33.49238,10.51722,-4.036215,0.5648502,-4.642796,-7.609854,-6.768461,-1.111075,-4.035294
0,72,-22.5125,-11.62012,-11.11088,-10.81636,-1.265952,-22.69589,-42.97997,-48.58059,7.14743,-3.916572,21.81151,0.9112236,-11.95701,-10.47921,-13.88265,-14.17671,-11.56411,-11.17403,-11.91849
0,73,-27.19291,-18.04373,-16.78248,-17.12652,-7.105381,-28.12762,-48.71254,-54.28078,3.25369,-5.442123,15.92443,-1.87599,-11.12391,-15.78597,-14.92666,-10.89228,-5.79814,-13.91382,-11.00673
0,74,-25.40907,-17.10773,-13.99217,-15.84357,-6.326605,-26.54597,-46.89198,-52.64923,5.479802,-1.396114,15.91898,1.738326,-5.261432,-13.22455,-10.86668,-3.736037,2.237194,-12.29207,-6.381308
0,75,-18.05693,-9.45884,-7.805675,-8.461265,1.390514,-18.94154,-39.95269,-45.04977,12.26738,4.635858,23.15907,8.213512,-0.5731901,-4.317378,-4.148685,3.111077,8.005516,-5.317468,0.2672427
0,76,-22.28887,-13.46114,-12.1523,-12.75523,-3.465443,-22.76049,-43.84008,-49.06482,8.673286,1.090447,19.36468,4.62795,-4.033713,-8.357169,-6.692315,-0.2196186,3.809603,-10.08954,-4.149929
0,77,-26.46816,-18.22328,-15.53092,-17.4516,-8.8438,-26.52841,-48.18457,-53.04157,6.614748,1.19897,14.12232,4.604813,-0.9468517,-10.45896,-5.860971,1.078592,4.456248,-14.22687,-6.010115
0,78,-22.84212,-15.10583,-11.88612,-14.06055,-5.318933,-23.42169,-44.46945,-50.38829,10.40818,5.383238,17.39261,8.791239,3.633034,-6.596048,-1.819709,6.277036,9.713146,-11.40995,-1.945014
0,79,-20.07161,-11.93834,-7.554539,-10.58715,-2.430208,-20.37903,-41.96087,-47.04753,12.84761,7.844484,19.25139,11.55278,6.104735,-3.754302,1.904212,7.972006,10.02207,-8.730714,-0.1071813
0,80,-22.95098,-14.87433,-8.908984,-13.51486,-6.568727,-23.21938,-44.49833,-49.53684,9.391189,4.53132,15.27553,8.596941,2.709986,-5.208201,-1.036921,5.1538,7.274529,-10.85614,-2.477618
0,81,-34.98411,-28.34037,-20.90113,-26.11039,-17.666,-36.67665,-58.03997,-64.10957,-1.555981,-5.10103,2.604669,-0.7968204,-4.995835,-15.35412,-12.25881,-3.68047,-0.05248333,-22.16017,-11.99992
0,82,-32.35643,-26.42363,-18.14655,-24.08859,-15.83917,-34.5992,-55.73624,-62.63792,1.625343,-1.335634,4.978282,3.050254,-0.5112927,-11.75527,-8.010192,1.17424,4.839802,-18.91803,-7.938398
0,83,-26.44012,-19.20549,-10.21425,-17.03675,-9.740876,-27.67079,-49.97844,-55.52792,7.889544,4.266703,11.61024,9.105801,4.411601,-5.019822,-2.072411,5.224019,7.893718,-12.32428,-2.924629
0,84,-28.39421,-21.31377,-11.83282,-18.78186,-10.76226,-29.75133,-52.0869,-57.65606,6.886172,3.79407,9.678248,8.972765,5.416275,-5.990741,-4.46588,2.373482,5.266077,-14.37209,-5.368813
0,85,-32.15874,-25.95183,-15.1739,-22.96142,-14.97104,-34.46653,-55.81533,-62.89059,3.490289,0.8525943,5.401787,6.415775,3.619055,-9.400789,-7.148324,-2.024261,0.2554228,-18.173,-9.618999
0,86,-22.00471,-14.47189,-3.79327,-11.70292,-4.569608,-23.45757,-45.42614,-51.33288,12.86054,8.897007,16.04337,14.86508,10.04325,0.1906419,1.912032,3.959718,4.648158,-7.910534,-1.91945
0,87,-27.55811,-19.80876,-10.04772,-17.31802,-10.27182,-28.44116,-50.45981,-55.48362,6.866141,3.026078,10.03791,8.646118,4.207562,-6.13485,-3.81586,-1.901136,-1.173,-13.85263,-7.894225
0,88,-25.31105,-17.59576,-6.508257,-14.78874,-8.526389,-26.57855,-48.07255,-53.4977,8.036259,3.722085,11.24171,9.914996,4.251286,-3.677029,-1.779974,-2.105733,-2.686172,-11.65767,-7.12088
0,89,-12.61375,-3.667121,6.346168,-1.34085,4.280181,-13.24342,-34.12747,-39.62492,19.56472,13.48444,25.32858,19.64024,11.72909,7.028216,7.60778,6.153288,5.37809,0.3786566,3.008144
0,90,-14.50976,-5.539644,4.448481,-3.347261,2.012811,-15.39304,-35.39352,-42.06467,17.6037,10.93185,24.24003,17.27263,8.603274,5.129433,4.415811,2.886923,2.450536,-1.685266,0.4687949
0,91,-10.35718,0.4887589,9.772738,2.34096,6.866733,-9.672281,-30.71021,-35.86442,21.84241,14.13015,29.43914,20.54149,10.49249,8.321368,8.569578,4.560482,2.272169,1.096504,2.067314
0,92,-7.853216,4.487959,12.94684,6.177991,10.16885,-6.187013,-27.27135,-31.89419,23.64277,14.58197,32.639,21.17115,9.212639,9.47315,9.539008,3.307035,-0.6046867,1.503163,1.181022
0,93,-5.623336,7.539515,15.48617,9.039765,12.67054,-3.338955,-24.50677,-28.67607,25.56972,15.75199,35.25532,22.58819,9.543767,11.56727,10.75743,3.069585,-1.745108,2.986436,1.523485
0,94,-12.27628,0.7154511,9.475874,2.224093,5.59093,-9.993819,-30.83021,-34.97504,19.22549,9.851904,28.54931,16.6354,4.655345,4.893837,3.75998,-4.245947,-8.09694,-2.652843,-4.731418
0,95,-16.36027,-3.400123,4.324769,-1.979667,1.568638,-14.2223,-34.79548,-39.27172,14.25318,4.414254,24.33578,10.92568,-1.987903,-0.2632393,-0.5371369,-7.891173,-11.9964,-7.855824,-9.155073
0,96,-24.27726,-11.35486,-3.041786,-9.537113,-5.269786,-21.86528,-43.29802,-46.77413,7.111022,-1.482529,15.82777,4.554166,-6.457534,-8.134412,-7.730082,-12.49774,-15.32752,-16.15318,-15.277
0,97,-27.42647,-15.12447,-6.807476,-13.0976,-8.679943,-25.70147,-46.95507,-51.42956,3.770879,-4.667535,12.26484,1.21589,-10.06495,-11.55396,-8.996801,-12.94845,-16.38409,-20.13725,-17.5766
0,98,-21.97098,-10.22692,-2.673595,-8.516832,-4.625408,-20.55126,-41.44176,-45.86057,7.63722,-1.041762,16.56131,4.527769,-7.482781,-7.244436,-2.541102,-7.205589,-11.46562,-14.17177,-11.89987
0,99,-11.91891,0.3957332,7.029352,1.935123,5.781761,-10.19611,-31.02057,-34.81794,16.35603,6.607645,26.44105,12.43029,-1.286053,2.303599,5.29491,-0.6762655,-5.710081,-4.442348,-3.921348
0,100,-8.836239,2.681028,9.278474,4.409118,8.518345,-8.07382,-27.63115,-31.91285,16.99027,6.883392,28.17982,12.26711,-1.980976,2.88834,5.814751,0.4269527,-3.398264,-0.7705135,-0.9684246
0,101,-20.91667,-9.757555,-2.720445,-8.050993,-3.743921,-20.00937,-40.82032,-44.02599,5.635666,-3.328258,15.66024,1.599998,-11.31248,-8.084722,-4.322507,-6.689818,-9.014159,-11.48272,-9.474781
0,102,-22.92339,-12.84365,-4.635387,-10.76059,-6.469448,-22.88097,-44.21518,-47.15328,2.917524,-5.146867,12.04817,-0.7168615,-12.81958,-10.96784,-3.481585,-5.095968,-7.205048,-11.93866,-8.70336
0,103,-23.52273,-14.75262,-6.233167,-12.71468,-8.850795,-24.82591,-44.34893,-49.61814,1.299477,-6.790686,11.12581,-2.797967,-14.99153,-13.18498,-3.684839,-4.403923,-5.754083,-12.09491,-8.097448
0,104,-23.87455,-15.0503,-7.180708,-13.22113,-9.371869,-24.97805,-44.54919,-49.4565,0.56319,-7.482018,10.85304,-4.106014,-15.97638,-15.179,-3.893003,-3.908128,-4.719034,-12.40239,-7.877125
0,105,-31.86209,-22.91974,-15.85806,-21.21024,-16.87757,-32.92802,-53.62398,-56.79194,-8.928869,-17.48138,2.409955,-14.47341,-27.31673,-24.3399,-12.89368,-12.57867,-12.50127,-18.63148,-14.92989
0,106,-37.12637,-29.74284,-21.27459,-27.28492,-22.33993,-39.76294,-59.86863,-63.69786,-15.26949,-23.11014,-4.845035,-20.05441,-32.08456,-30.20327,-17.41738,-17.94853,-17.66864,-22.64748,-19.36947
0,107,-28.34469,-21.06639,-12.5689,-18.76154,-14.2366,-30.73271,-50.9248,-54.63921,-6.040892,-13.47096,3.507631,-10.26462,-21.88736,-20.27094,-7.209175,-7.965187,-8.584312,-14.01893,-10.41435
0,108,-24.55098,-17.78856,-10.83104,-15.80255,-10.66329,-27.19578,-47.15194,-50.96503,-2.713198,-10.20231,7.295647,-7.317794,-18.91987,-16.86857,-3.95437,-3.559077,-3.596697,-9.902061,-6.006889
0,109,-13.97861,-6.951417,-0.6081143,-5.464551,-1.315411,-16.30587,-35.3931,-39.39523,6.926303,-1.370432,17.72707,1.815323,-10.98366,-6.302883,5.528561,3.886213,2.757644,0.6349797,2.632217
0,110,-6.955712,-0.8645017,4.987474,1.033994,6.03749,-10.39776,-28.23636,-33.1249,12.22626,3.610397,23.30512,6.993724,-6.348712,-0.3540979,10.86182,7.96054,6.203318,6.973459,7.814534
0,111,-15.68935,-9.993801,-5.079034,-8.241211,-2.371711,-19.12188,-37.64056,-41.46294,3.595273,-4.410652,14.58544,-1.739315,-13.63651,-10.30065,2.530581,0.5567055,0.2489042,-0.3641088,0.7853611
0,112,-18.15472,-12.14174,-7.318019,-10.52307,-4.505446,-21.04604,-40.33612,-43.27781,2.021862,-5.566239,12.62389,-3.070346,-14.08213,-12.33526,0.4206465,-0.7982096,-0.4205368,-2.273516,-0.7564824
0,113,-18.09188,-12.95794,-6.371078,-10.98415,-5.354792,-21.73971,-40.27471,-44.07389,2.098309,-4.78155,11.6241,-2.016457,-12.14982,-11.42554,1.14211,-0.4025727,0.1900735,-1.317894,0.03371217
0,114,-13.09905,-7.778257,-2.262938,-5.963048,0.1074642,-16.573,-34.86181,-38.35247,6.692186,-0.5446135,16.9533,2.02299,-8.06918,-7.745723,4.606848,2.330343,3.120536,3.564596,3.848483
0,115,-10.29054,-4.214382,1.340079,-2.461072,3.375446,-13.35073,-31.45746,-35.09705,9.58884,1.758888,20.67457,4.40767,-6.387089,-5.257268,5.761045,3.688875,4.735769,5.662253,5.65556
0,116,-12.75688,-7.37002,-2.113106,-5.669754,0.10601,-16.13389,-33.36908,-37.17748,6.08442,-1.54701,16.60696,1.372944,-9.476662,-6.751485,2.517467,0.1992387,1.000371,3.065512,2.567871
0,117,-15.52514,-9.673329,-4.645455,-8.072711,-2.289179,-18.16442,-36.07755,-38.84955,3.917832,-3.228213,13.99174,-0.7112496,-10.53599,-10.02759,0.4870504,-1.323111,-0.2641573,-0.009561998,0.2233875
0,118,-9.622375,-3.130326,2.898416,-1.401919,4.245469,-11.63527,-30.64795,-32.44592,10.69449,3.988196,20.22496,6.42496,-2.947983,-3.196383,6.543269,6.913856,8.802169,6.163967,7.658618
0,119,-4.061,2.872196,7.773174,4.273293,10.26002,-5.646119,-25.24928,-26.79522,16.79368,9.757821,26.84144,12.15198,2.187443,3.182086,11.59279,13.8169,16.07129,11.43961,13.81036
0,120,-1.518114,5.208559,10.20559,6.74171,12.69498,-3.342789,-22.10235,-24.77213,19.51002,12.51876,29.18831,15.20442,5.137587,6.466991,13.97908,16.40549,18.07491,12.50541,15.46837
0,121,-5.05969,0.4972506,6.69471,2.499227,8.120136,-7.504675,-25.02451,-28.74658,15.60919,10.04534,23.18675,12.58855,4.143095,3.260302,12.36821,15.88209,17.0756,7.300785,12.48455
0,122,-4.063883,1.495872,7.794089,3.412991,9.14034,-6.381373,-23.95144,-27.65504,16.9805,11.66674,24.37269,14.20647,6.003078,5.397734,12.46145,18.26953,20.64578,8.518852,14.61887
0,123,-1.15442,4.704572,12.28689,6.823084,12.26827,-2.752201,-21.52759,-23.93781,21.15576,17.07575,26.67612,19.5641,12.94889,9.836073,17.38646,24.55264,26.99941,11.53602,19.18939
0,124,-2.564986,4.031359,11.20308,5.952565,10.9898,-3.364408,-22.40334,-24.69748,20.52741,16.45238,25.94996,18.77762,12.22527,8.349832,16.94875,24.48327,26.28578,8.502026,17.3375
0,125,-13.60048,-8.097445,-0.3348761,-6.025193,-1.153319,-15.45652,-33.67264,-37.062,8.868736,4.850909,13.90845,7.615101,0.764869,-1.809599,6.690338,12.68506,13.99149,-1.63062,6.32799
0,126,-13.11113,-7.460132,1.48385,-5.298356,-0.7742597,-14.59188,-33.39642,-36.66885,10.78306,7.727441,14.6992,10.2583,4.718432,-0.3058294,8.813813,17.27097,19.40797,-1.150515,9.024993
0,127,-14.52329,-8.982615,1.218243,-6.710268,-2.293792,-15.63206,-35.55138,-37.69191,10.22442,8.505034,12.63081,10.67836,6.693672,-0.1930368,8.653819,20.88841,24.72,-1.509595,11.12112
0,128,-9.536939,-4.235479,5.186834,-1.785827,3.120458,-10.96855,-30.49349,-32.66069,14.15316,12.04632,16.65062,14.50417,9.808627,4.412128,12.98224,23.4147,25.87807,2.538713,14.07564
0,129,-5.477078,0.01776605,10.4388,2.530103,6.568162,-6.942636,-25.77037,-28.80318,18.16373,15.67346,20.56638,18.80923,13.12986,9.920982,16.54801,26.05054,27.60002,5.992004,16.90388
0,130,3.844622,10.3364,19.60793,12.44432,16.2624,3.094935,-15.42202,-18.34697,27.3491,23.69745,31.04974,27.19811,20.15491,19.20654,23.44264,31.42533,32.30212,14.50113,23.58292
0,131,5.197908,12.07155,21.21627,14.30758,17.85516,4.334038,-13.81285,-17.08831,27.58321,22.90746,32.1729,26.80254,17.88107,20.02902,23.88792,30.00432,29.42783,14.71683,22.6934
0,132,-3.770948,3.127015,11.69336,5.300061,8.890903,-4.608556,-22.75632,-26.05838,18.3218,13.39589,22.96802,17.45932,7.875304,11.50909,15.08669,20.81055,19.60747,5.058647,13.10664
0,133,4.327016,12.02209,18.34986,13.6474,17.76326,4.401177,-14.17188,-16.29406,26.42572,20.83458,32.07122,24.77186,14.85947,18.94807,21.42418,26.28756,24.9205,12.91257,19.56989
0,134,0.02934777,8.459108,15.94652,10.14333,12.96618,0.7160465,-16.61933,-19.37239,22.06566,16.35129,27.6396,20.44595,10.60698,14.02783,16.16008,19.64447,17.73643,6.738564,12.94939
0,135,6.309858,16.59805,23.59127,18.00461,20.28316,8.524739,-9.808613,-10.95539,28.46136,21.78676,35.01614,26.01197,14.92725,19.91088,20.99177,23.32041,20.60682,12.03735,17.13635
0,136,6.413978,17.50081,23.36124,19.05816,22.26783,8.857354,-9.471883,-9.934187,27.72587,19.85597,35.7032,24.3834,12.14229,18.53142,17.71384,17.35519,14.1909,11.45462,13.77619
0,137,2.324276,12.94801,18.17341,14.35328,17.44037,4.645385,-11.57932,-13.3052,23.24156,15.60483,31.14054,19.9734,8.806794,13.34461,12.01381,10.9095,8.01175,5.869946,7.712158
0,138,2.462878,13.02642,18.937,14.20366,16.77623,4.846605,-11.39543,-13.39064,24.16447,16.87586,32.12354,20.92533,10.53957,13.47333,12.70464,12.92756,11.36279,7.352668,9.785986
0,139,-5.778749,4.81037,11.5886,5.966917,8.28524,-3.096051,-19.96757,-21.65833,17.49573,11.20784,24.74093,14.60086,6.377162,4.223516,6.979736,7.591591,7.002825,0.124523,3.627367
0,140,-10.09567,-0.201588,6.318119,1.243648,4.561138,-8.227941,-25.42089,-26.82163,12.44832,6.168673,19.97231,9.366692,1.30042,-1.331069,2.659779,2.54855,2.370833,-2.8543,-0.1559536
0,141,-16.70757,-7.782223,-0.7641547,-5.954576,-2.319688,-15.76294,-32.4285,-34.50355,5.094803,-0.7430869,12.12878,2.311237,-5.363961,-8.547182,-3.173222,-3.070997,-3.163897,-9.445148,-6.119857
0,142,-22.60036,-13.30237,-5.450384,-11.78694,-9.09804,-21.44205,-38.36769,-40.67112,-0.007308472,-6.075957,7.688813,-3.151343,-10.91233,-14.63975,-8.22392,-8.399812,-7.772442,-13.74178,-10.76637
0,143,-16.96384,-8.001884,0.9227988,-6.34407,-4.142362,-16.08061,-33.58199,-35.58325,5.329343,-0.2990853,12.64056,2.269778,-5.262846,-9.577359,-0.4508955,0.08448292,0.7113404,-6.997145,-3.066326
0,144,-12.03134,-5.387357,3.222308,-3.260202,-0.01840924,-12.97917,-29.36124,-32.40374,8.780527,4.054348,14.71093,6.673471,0.04782702,-4.702751,6.019831,5.707299,5.409562,-1.661819,2.267487
0,145,-14.36549,-7.414982,0.6232142,-5.625869,-3.025297,-14.19565,-31.03092,-32.86612,6.906335,3.147344,11.40344,5.347097,0.07204606,-6.741874,6.022063,6.19294,5.046283,-5.294622,0.2398932
0,146,-8.256096,-1.328832,6.107038,0.7035679,3.813414,-8.348225,-24.49294,-26.91399,12.4637,8.328468,17.28139,10.6254,4.983555,-1.740695,11.21808,10.1535,8.030645,-0.8250318,4.204638
0,147,-16.43878,-9.557781,-2.005679,-7.52621,-4.298666,-16.88517,-33.7606,-35.51257,3.569017,-1.176828,9.287499,1.210079,-5.414727,-10.42742,2.886462,0.299956,-1.612523,-6.852297,-3.552095
0,148,-11.89034,-6.217663,1.478301,-4.068107,-0.3709538,-13.40632,-30.0524,-31.76039,6.822111,2.268399,12.6059,4.535823,-1.940274,-6.352845,7.114722,4.469906,3.343096,0.0400839,2.341336
0,149,-4.613183,1.659762,8.244631,3.383644,7.02793,-5.652501,-23.07664,-23.48465,13.45768,7.979332,20.49646,10.26633,2.661478,0.1589775,13.54525,8.908267,7.321842,8.724354,8.754413
0,150,3.493441,9.321676,14.98787,10.7838,14.18887,1.74668,-13.88226,-15.2245,19.19078,12.55871,28.30528,14.57635,5.761223,5.151779,18.84049,12.15333,10.75079,17.42939,14.89429
0,151,-1.009871,3.758659,8.020436,5.153385,9.313497,-3.912382,-18.06997,-20.4121,12.53207,5.140917,22.90191,7.191518,-2.781816,-0.4254551,11.66026,4.497072,3.581925,13.27041,9.289353
0,152,-20.59768,-17.77458,-13.61006,-15.97723,-10.57246,-24.75554,-38.90543,-40.72887,-8.569837,-14.4669,0.5383245,-13.2577,-21.42154,-20.9342,-6.932553,-11.20677,-10.13111,-4.912893,-6.930166
0,153,-15.15307,-12.20728,-7.951024,-10.56724,-5.163493,-19.04319,-34.47659,-34.83126,-2.952291,-8.670125,6.173769,-7.726291,-15.455,-15.86285,-0.4293901,-5.17985,-3.765483,2.772854,-0.008940917
0,154,2.758399,4.744096,8.61735,6.446574,12.02589,-2.432502,-15.84699,-18.40256,13.78387,7.282003,24.01764,8.492285,-0.0912125,0.769876,15.84309,9.127255,9.899093,20.66919,16.00389
0,155,3.607992,5.369887,7.555465,6.753512,12.5049,-2.068401,-13.53179,-17.03341,12.4648,4.537587,24.70058,5.961791,-4.277806,-0.07335546,12.55787,3.452875,4.105288,21.16516,13.45371
0,156,-3.529324,-1.741869,-0.08613414,-0.2214506,6.17389,-9.390636,-20.83209,-23.69224,4.099832,-4.301766,17.16277,-2.974225,-13.7126,-8.577073,3.347376,-6.519743,-5.313905,14.40897,5.349212
0,157,-13.91657,-12.94335,-11.07192,-11.41518,-4.463018,-19.99742,-31.67412,-34.22674,-5.786757,-12.92344,6.117606,-12.01917,-21.00641,-17.78358,-6.765636,-12.86894,-9.36811,5.095201,-1.850374
0,158,-7.549612,-6.734052,-6.176901,-5.738215,1.345942,-13.09499,-25.07065,-26.89127,0.9701514,-5.461401,12.59447,-5.35599,-12.9524,-11.96471,0.4136823,-3.393639,1.125101,11.81402,6.366021
0,159,1.958189,4.026089,1.549729,4.492098,12.47317,-2.376942,-15.4001,-14.81315,9.247282,1.52906,22.45167,1.626272,-7.632396,-3.213559,6.613951,1.900106,5.894283,20.77909,13.29809
0,160,3.714171,5.519197,2.110905,5.784215,13.72068,-0.7976692,-12.64488,-12.84072,9.983836,1.895791,23.67152,2.029775,-7.956204,-1.496851,6.711669,2.700344,6.694793,21.39421,14.03862
0,161,6.678301,7.169848,2.870628,7.664048,16.54477,0.9702188,-9.706045,-11.12873,11.72143,3.882047,25.50369,3.572932,-6.069177,-0.1408721,9.475684,6.537671,10.82242,23.67144,17.2833
0,162,5.512902,6.030196,1.740576,6.229725,15.2248,0.03163021,-10.88436,-11.88524,11.44029,3.859444,25.34696,3.418911,-5.18855,-0.9507582,7.521071,5.044554,10.95736,24.44043,17.27177
0,163,4.83308,5.972002,1.690331,5.792414,14.15733,0.1120912,-10.5231,-11.73059,11.81471,4.224157,25.68641,3.95306,-4.436139,-0.3505589,6.065153,4.346152,10.73505,23.29195,16.33883
0,164,-6.673524,-5.373775,-8.992332,-5.139072,3.753542,-11.3349,-22.35343,-23.50494,1.141624,-5.936552,14.31941,-6.223616,-13.83218,-11.46723,-5.327441,-5.816391,1.195994,10.93512,5.264735
0,165,-10.19223,-9.93275,-12.61615,-9.235247,0.09216303,-15.26413,-26.04458,-27.18397,-1.805704,-7.191072,9.109354,-7.674235,-12.65812,-14.58754,-6.905064,-6.943507,0.2435256,7.26699,2.836943
0,166,-4.248991,-4.037598,-5.839474,-3.336343,5.167697,-9.053735,-19.68803,-20.90011,4.555328,-0.2659514,14.24034,-0.471609,-5.003897,-7.1541,0.4723409,0.2912464,6.548189,12.72473,8.853206
0,167,5.636621,7.348997,2.565109,7.211997,15.48712,2.164155,-7.967535,-8.988572,14.04521,7.556371,25.70207,7.493199,0.9356179,2.019829,7.58494,5.984735,10.83515,20.03558,14.79247
0,168,7.518268,10.57376,4.554994,10.0844,18.23692,5.018464,-4.973733,-6.596823,17.36588,9.910162,29.95016,10.21348,2.792896,4.176116,8.63772,5.649223,9.291871,19.57551,13.86549
0,169,5.497642,8.409491,2.095447,8.004366,16.80913,2.841497,-7.153757,-8.848895,15.54618,8.177288,28.10622,8.524545,1.311833,2.612016,5.635737,3.678007,8.060541,17.54054,12.08376
0,170,4.463113,7.459181,2.634242,7.454458,16.04292,2.159293,-7.69221,-8.99537,14.66376,8.380238,25.82365,8.542162,2.678447,2.190589,4.067169,4.902406,10.41514,15.4544,11.9898
0,171,9.468313,13.22536,8.423941,13.16998,21.72622,7.883601,-2.552367,-3.421419,21.03014,14.8042,31.93112,15.09567,9.762972,7.562531,9.524193,9.522994,14.53639,19.98056,16.27186
0,172,7.265338,11.85129,6.712708,11.74215,20.13818,6.307775,-4.39334,-5.102905,19.32934,12.72503,30.53211,13.07415,7.333916,5.061516,7.394218,6.653547,10.8878,16.40424,12.76311
0,173,3.430133,8.211218,3.520117,8.391629,17.05088,2.59148,-8.744168,-8.80161,15.47349,9.005032,26.13353,9.617347,3.643716,2.258009,3.429166,3.174124,7.259265,12.24858,8.969177
0,174,7.518048,12.40136,8.307856,12.65999,21.0042,6.965373,-4.385265,-4.334197,19.54394,13.56925,29.50476,14.09119,8.273145,7.395525,7.345419,10.03283,14.69515,15.42453,14.18704
0,175,3.447588,8.003179,4.121805,8.314844,16.46597,2.750122,-7.917945,-8.479443,15.36109,9.732785,24.7924,10.26662,4.771445,3.752951,3.360897,6.815536,11.53016,10.50696,10.13311
0,176,-6.005225,-1.62968,-4.881165,-1.237938,6.714395,-6.592979,-18.32813,-18.42559,7.037694,2.176602,15.07031,2.838432,-1.925783,-4.124301,-2.71957,0.5056332,4.414119,1.482918,2.172638
0,177,8.449183,13.16896,9.940623,13.72167,21.21798,8.076982,-2.535452,-3.973372,21.81323,16.92283,29.60887,17.55788,12.90739,9.302938,12.33858,14.96095,17.16674,12.67478,14.43226
0,178,10.90626,17.60052,13.75877,17.69695,24.31201,12.2748,0.5295503,0.2308547,25.48561,19.76209,33.90427,20.62232,14.94649,12.09578,15.20278,16.18327,16.82304,13.67721,14.91593
0,179,2.804467,10.78254,6.932169,11.00547,17.81012,5.213974,-8.05846,-6.945858,18.27193,12.30916,26.44558,13.52338,7.219326,5.313405,7.070862,8.112013,8.130163,4.452588,6.063614
0,180,-13.10228,-5.623474,-7.228981,-4.978361,1.087202,-10.79003,-23.85991,-22.73038,2.470777,-2.141868,8.67485,-0.9121315,-5.875306,-9.106927,-7.51887,-4.618215,-3.847585,-11.58357,-8.052566
0,181,-21.08086,-12.97799,-13.97287,-12.78234,-7.748528,-17.79358,-31.31431,-29.89928,-3.475054,-7.532878,2.092835,-6.389422,-9.994665,-16.14141,-13.64195,-11.09648,-10.00188,-18.88414,-15.10292
0,182,-15.48988,-7.673322,-7.802667,-7.122561,-1.812305,-12.22641,-26.13406,-24.28917,2.70542,-0.3286191,6.95299,0.6194203,-1.416173,-10.43806,-6.822576,-3.454403,-2.153556,-13.27671,-8.456989
0,183,-3.357211,5.995219,4.74325,6.44305,11.46413,0.6696944,-13.02757,-11.59112,14.60997,9.827225,20.40971,11.39438,6.70407,1.32344,3.595775,4.587834,3.400049,-4.206721,-0.6046269
0,184,-0.4992157,9.760677,7.659775,9.79488,14.40179,4.138234,-9.662923,-7.995927,17.52288,11.5603,24.44464,13.68154,7.396937,4.770868,5.183788,3.767619,1.479642,-1.422256,0.005558747
0,185,0.2481772,10.46746,6.418952,10.19974,15.56134,4.935938,-8.566981,-6.352933,17.20273,10.65233,25.12061,12.63216,5.905754,4.397069,3.76185,1.488117,-0.6135312,-0.5855438,-0.6847608
0,186,-0.06821764,9.956532,4.484449,9.584511,15.43323,4.153837,-8.157894,-6.765354,15.69267,8.216753,25.06618,10.11669,2.590501,1.90018,1.44749,-2.870752,-5.315311,-1.525616,-3.401551
0,187,-11.21316,-1.229328,-5.413994,-1.295146,4.060828,-7.607806,-19.59814,-18.73419,3.267673,-4.832489,13.63249,-2.932416,-11.8067,-10.37109,-10.50659,-14.93234,-16.84616,-12.07364,-14.30814
0,188,-17.4372,-8.438072,-11.53017,-8.337702,-3.089453,-14.27748,-25.83171,-24.96019,-3.116313,-9.907558,6.100046,-8.582744,-15.37674,-17.17551,-15.84955,-18.66987,-18.97797,-17.09438,-18.2353
0,189,-9.628191,-0.2435035,-4.641609,-0.09482028,5.714182,-6.364836,-18.63077,-16.82191,3.605649,-4.048922,13.58058,-2.589232,-10.8871,-10.29831,-8.259482,-13.03621,-15.06471,-9.92187,-12.24741
0,190,0.8938236,10.28592,4.012675,10.19143,16.09748,3.628335,-7.079462,-6.314408,11.90042,2.452404,24.30809,3.974353,-6.565731,-2.759071,-0.3564622,-8.640221,-12.10637,-0.295583,-5.548937
0,191,7.927965,17.62569,9.807664,17.04602,22.82603,11.16228,0.8019437,2.198702,17.68654,7.702286,31.05777,8.905564,-2.363784,3.284659,4.816143,-2.925953,-6.18438,6.345261,0.668061
0,192,13.00693,21.9338,14.38214,21.74833,28.00508,15.34121,5.643734,6.418042,21.54905,11.63196,34.97808,12.70991,1.281976,7.400145,9.232184,2.125445,-0.9159031,11.2513,5.873234
0,193,18.41003,27.47706,18.23039,27.02814,33.57339,20.80991,11.33336,12.78352,25.22142,14.41109,40.01622,15.23001,2.727201,10.61489,13.07944,4.249864,0.6284597,16.6084,9.487848
0,194,17.2543,26.09569,14.36391,25.39771,32.85476,19.27393,10.09592,11.57191,22.3017,10.49572,38.81047,10.86569,-2.989175,7.010609,10.60475,1.304727,-2.580458,14.91296,7.180171
0,195,6.438963,14.33544,2.288364,13.607,21.38398,7.77204,-0.5926031,0.1529735,11.05222,-0.3819155,27.46283,-0.2818809,-13.43953,-4.294527,-0.243755,-8.983376,-11.95702,4.601034,-2.844688
0,196,0.1474675,7.119619,-5.121209,6.242684,14.435,1.061671,-6.918992,-6.280209,4.726591,-5.812455,20.85301,-6.432875,-17.89277,-11.29163,-6.660533,-12.85996,-13.52676,-0.2798154,-6.599696
0,197,12.85835,19.4833,6.030124,18.78458,27.83471,13.17739,6.594269,6.283391,16.1276,5.073958,33.34612,4.09248,-7.508645,-1.527869,3.799462,-3.089005,-3.867967,10.95172,3.921963
0,198,8.448475,14.98055,1.936496,14.08579,22.78174,8.897217,1.92094,2.262607,11.67782,0.9202214,28.85233,-0.3206534,-11.47571,-5.872187,-0.3585231,-6.446549,-6.126853,8.205435,1.177802
0,199,3.403732,9.876092,-3.081457,8.569661,16.81388,3.941802,-3.764412,-3.292264,7.218713,-3.219651,25.00753,-5.427372,-15.94623,-12.24795,-3.474873,-6.967288,-4.857795,4.959342,-0.2211922
0,200,2.293361,8.926565,-5.765165,7.329296,15.98924,3.113774,-4.709127,-3.255921,4.984787,-5.995924,23.52773,-8.354396,-19.47596,-14.47806,-5.677195,-10.52021,-8.883357,3.775906,-2.744736
0,201,2.225838,7.787542,-8.513204,6.208612,16.05249,2.488155,-4.795075,-3.154243,4.04937,-6.443225,22.06586,-9.032907,-19.13021,-15.28927,-5.981426,-11.45869,-9.974569,3.605928,-3.387604
0,202,5.282752,9.654789,-6.238209,8.221135,18.06364,4.422231,-0.8510027,-1.300242,6.144761,-4.002583,24.36094,-7.015863,-16.61807,-13.3552,-4.156083,-7.086791,-4.087467,6.194611,0.6382134
0,203,9.163844,14.17373,-1.752321,12.60211,22.00003,8.931367,3.184438,3.440051,10.308,0.03122534,28.66899,-3.120216,-12.61383,-10.33454,0.4934714,-3.874591,-1.601765,9.989491,3.84799
0,204,15.35514,20.40438,2.036834,18.72071,29.26619,15.21801,9.302509,10.65158,14.74255,3.868888,34.02916,0.3499205,-9.990779,-5.97923,4.938202,0.4520571,2.260504,15.17325,8.522323
0,205,6.524918,10.74702,-7.031142,9.381367,20.56132,5.798682,0.1873233,1.562794,5.338089,-4.686113,24.04939,-8.624356,-17.81463,-15.02428,-4.908465,-6.460737,-2.487723,6.992271,1.697637
0,206,-3.926099,-1.672986,-18.28169,-2.397,9.658742,-5.800079,-10.99944,-9.844239,-5.101829,-12.83013,11.06498,-17.43283,-23.24511,-25.75248,-12.99584,-12.26826,-6.833697,-2.753229,-5.648367
0,207,-0.350145,2.963336,-14.30618,1.64108,12.77794,-0.9049247,-6.691711,-4.780651,-0.4517741,-8.314556,15.68832,-12.93343,-18.76647,-21.51749,-8.340301,-8.144537,-3.592109,0.1710241,-2.592009
0,208,7.887224,11.63335,-6.184738,10.02731,20.94035,8.099324,1.961587,4.905199,8.490824,0.6693631,23.98861,-3.48392,-8.768966,-12.32141,0.3675671,-2.824467,0.1547554,8.708643,3.671397
0,209,9.318171,12.89032,-5.628503,11.30865,23.35285,9.380598,3.591551,6.136908,10.72829,2.98298,26.14664,-0.8313973,-5.585257,-9.439378,-0.6121158,-2.634887,1.521689,10.06786,4.719894
0,210,9.228799,13.10738,-6.038941,11.17712,22.93647,9.79406,4.615367,7.085181,10.90334,3.166656,26.72822,-1.031083,-5.001716,-10.83882,-1.372177,-3.810286,0.8050277,9.608478,3.881479
0,211,16.90454,20.54055,2.011091,18.80085,30.10402,16.97921,13.03197,14.42007,18.01281,10.02346,34.29242,5.74238,1.972604,-5.475873,6.347658,1.046178,4.791671,17.0044,9.76728
0,212,11.79892,15.55059,-4.204607,13.33938,24.82598,12.40314,7.788436,10.46149,12.9591,4.931047,29.15965,0.7856719,-2.969218,-9.387699,0.9412091,-4.938563,-1.118459,13.03111,4.701346
0,213,11.69708,15.19861,-3.853845,13.11123,24.61468,12.18102,8.082871,10.24372,13.04107,5.562041,28.76319,1.306408,-1.802831,-8.690386,-0.2407961,-3.125377,2.22256,12.62207,5.871237
0,214,2.692901,7.168588,-12.0784,4.813234,16.0667,4.142779,-1.13828,2.028082,5.04777,-2.499268,20.94378,-6.919979,-10.09852,-17.22805,-8.693991,-10.57162,-4.795799,3.585777,-2.333011
0,215,-9.635759,-5.743232,-24.51748,-7.553065,4.683789,-8.483555,-13.95055,-10.78836,-6.81397,-13.13982,7.455906,-17.7034,-19.48459,-28.38008,-20.64123,-19.22369,-12.39195,-9.984715,-13.09967
0,216,-6.364918,-3.241261,-19.95298,-4.646503,7.289686,-5.789107,-10.81073,-8.686424,-2.876922,-7.941684,10.05782,-12.76897,-13.05949,-24.26115,-16.28623,-11.23217,-2.856366,-6.528844,-6.872757
0,217,2.55438,5.189603,-11.5533,3.911089,16.06238,2.628654,-1.752887,-0.6771871,6.336165,1.323207,18.8746,-3.133657,-3.370842,-14.58257,-7.034145,-2.740381,4.768524,1.852341,1.299627
0,218,3.137076,5.888154,-10.68263,4.396233,15.82075,3.580059,-0.2767767,0.3340188,7.390043,2.602242,19.37957,-1.684978,-1.717882,-12.87648,-6.015621,-1.4411,5.662335,1.565664,1.595806
0,219,-0.193266,3.232962,-13.16985,1.609829,12.51858,1.143618,-3.322671,-2.142123,4.900142,0.60612,16.35493,-4.095689,-3.485559,-16.19557,-8.001499,-1.599094,5.663992,-2.917824,-0.778358
0,220,-3.587499,-0.2359533,-16.46289,-1.867348,8.827435,-2.015289,-6.872277,-5.271303,1.780066,-1.942844,12.38163,-6.783596,-5.587678,-19.08715,-9.845274,-2.800656,4.21522,-6.561097,-3.314038
0,221,-9.96895,-6.770289,-21.48197,-8.435404,1.277418,-8.328588,-13.35156,-11.96267,-3.806089,-6.911681,5.785282,-11.55815,-9.884409,-23.66363,-14.43201,-6.681012,0.5278535,-12.10936,-7.994856
0,222,-8.464915,-4.483741,-18.61787,-6.289924,2.826929,-5.970013,-11.8442,-9.413488,-1.487963,-4.582958,7.566376,-8.752717,-7.228532,-20.24854,-12.73215,-5.668932,1.04161,-10.21272,-6.766127
0,223,-0.3484546,4.094611,-9.321148,2.297297,10.77193,2.501362,-3.441343,-0.8224121,6.6867,3.318053,15.46262,-0.2164681,0.4938887,-10.42814,-5.118643,1.174519,7.004143,-2.283985,0.3808394
0,224,12.08843,18.26696,4.090476,16.23765,24.30182,16.1517,9.016216,12.60323,19.77237,15.2013,29.60424,11.96746,11.05561,1.574874,7.624881,11.34679,14.9974,8.910151,10.35527
0,225,9.796549,15.83924,1.173608,13.56112,21.05412,13.92822,7.511269,10.73765,16.62577,11.94185,26.61969,8.545183,7.177274,-1.043225,5.344685,9.473717,12.80411,5.75114,7.756155
0,226,-4.829081,0.9668015,-12.44382,-0.7796364,6.676481,-0.5681387,-7.370274,-3.790953,2.454633,-0.9242905,10.20385,-4.233325,-4.446156,-13.96136,-7.273711,-1.402214,1.583868,-10.51622,-5.89648
0,227,-12.0974,-5.59637,-18.53398,-7.512671,-0.6864515,-6.907739,-14.4564,-10.49822,-2.890057,-5.775454,3.828724,-8.885658,-8.262004,-19.62005,-12.43678,-6.976477,-4.650375,-18.33969,-12.98205
0,228,-6.746955,-0.4046225,-12.92079,-2.315866,4.299916,-1.662863,-9.553617,-5.265504,2.689753,-0.04902802,9.201259,-3.165187,-2.041057,-14.78527,-5.661199,-2.268325,-0.5603842,-11.68408,-7.522331
0,229,-4.764572,1.070273,-10.13143,-0.4132981,5.88209,-0.3435777,-7.714103,-4.05335,4.178771,1.53468,10.08751,-1.121732,-0.1834274,-12.44637,-3.045155,-1.523917,-0.8744094,-9.582485,-6.300882
0,230,1.599688,7.414997,-3.817112,6.076892,12.26314,5.543176,-0.5964527,1.917276,9.426527,5.913931,16.33768,3.545203,3.185859,-7.002098,1.34832,1.632281,1.678857,-4.216485,-2.095647
0,231,3.577332,10.28671,-0.9078209,8.86188,14.50561,7.935241,1.472317,4.134614,11.24842,6.788458,19.19161,4.616418,2.802942,-5.594292,3.045341,1.797498,0.8962379,-2.635452,-1.456442
0,232,12.84081,19.76674,8.996155,18.41626,23.5026,17.09794,11.03796,13.63794,19.36393,14.21274,27.97251,12.28894,9.256947,2.965003,11.39787,8.435366,6.626543,6.607635,6.329287
0,233,17.80157,24.93979,12.09395,23.32416,28.73752,21.96145,16.49888,19.36231,22.38368,15.73476,32.83462,13.93104,9.098607,5.559044,14.39793,7.274064,3.803596,11.23336,7.625375
0,234,14.12716,22.11364,7.430856,20.01249,25.67491,19.04936,13.42328,17.10133,18.37608,10.75471,30.11505,9.021809,3.160999,1.48821,8.49959,0.3109155,-3.232421,7.19789,2.027401
0,235,10.76373,18.83301,4.937932,16.74179,22.2901,15.85086,9.390107,14.04342,15.13988,7.912145,26.78147,5.831385,0.572735,-2.090097,5.373947,-1.531193,-3.694495,5.533826,0.6960404
0,236,11.78996,18.55655,5.235867,16.71488,22.37561,15.656,9.902598,13.30799,15.43351,8.716786,26.82546,6.230921,1.369642,-1.926504,7.767849,2.364369,0.749494,7.124435,3.735111
0,237,9.075329,16.53329,3.259979,14.34085,19.09895,13.85129,7.402304,11.76339,13.31548,6.737748,24.62588,3.905859,-0.4407556,-5.446022,6.944763,0.3222873,-1.847584,4.698102,1.194121
0,238,8.116329,14.34594,0.9075622,12.64212,18.04456,11.59949,6.850076,10.0151,10.13842,3.584775,21.60703,0.5394931,-3.950088,-8.376435,4.523858,-2.09555,-4.222946,2.655752,-0.8220284
0,239,16.01223,22.65389,7.607658,20.5119,25.69951,19.77781,15.71891,18.25751,17.63497,10.09156,30.2222,7.199874,1.363899,-0.9153324,11.51822,3.660923,0.2855583,9.138659,4.883235
0,240,13.09546,19.27164,4.248687,17.16986,22.37871,15.97658,12.67705,14.0643,14.26783,6.066333,28.09324,3.073505,-3.09687,-6.138838,8.771344,-2.070618,-5.712671,7.364774,1.105168
0,241,10.9042,15.58166,1.531572,14.12891,20.4773,12.2884,9.596017,10.25416,11.33642,3.976073,24.70705,0.5952628,-4.239392,-9.418847,5.938198,-3.077097,-4.745802,6.545094,0.9345291
0,242,16.00698,21.49591,6.431294,19.72906,26.15085,18.31785,14.53128,16.88139,15.96085,8.422243,29.97066,4.433917,-0.7451432,-5.289649,10.37814,3.431965,2.475344,11.55792,6.889791
0,243,20.75973,26.56652,10.96678,24.69312,30.96419,23.60499,19.59918,23.40674,19.31061,11.7064,33.50101,7.375597,2.029008,-1.789791,14.15757,7.095615,6.050135,16.16403,11.0216
0,244,13.66426,18.15034,2.055104,16.16868,22.46434,15.37317,12.92701,15.15053,11.03488,3.372718,25.44184,-0.9304945,-6.581306,-8.970911,6.781927,-0.3427348,-1.204849,9.366301,4.039845
0,245,-0.7604519,3.199537,-13.49767,0.8155029,6.99341,0.8059599,-1.367996,1.113326,-4.328076,-11.81,10.55048,-16.69363,-22.15101,-23.93517,-8.331325,-13.32632,-12.27236,-3.716477,-8.410385
0,246,3.450605,7.395816,-10.39885,4.875796,11.71057,5.290935,3.535938,6.498904,-0.3391349,-7.512975,14.82269,-13.07073,-17.16686,-21.80011,-5.649141,-10.06348,-7.857062,0.2322135,-4.587433
0,247,8.633937,13.07925,-5.193117,10.45784,17.67148,10.87362,8.485536,12.06638,5.330186,-2.017062,20.94793,-7.737819,-11.74739,-16.99618,-1.078758,-5.026422,-2.329995,5.671986,0.7433336
0,248,7.213178,11.68114,-7.431242,8.596372,15.855,9.671403,7.304948,10.5095,4.997313,-2.439368,20.70348,-7.919776,-11.88001,-16.71712,-2.636756,-6.084986,-3.026171,4.707801,-0.2967354
0,249,13.49103,17.97892,-3.626173,14.53434,22.1843,16.01973,14.99558,17.89742,9.531593,1.1275,26.47882,-4.407708,-9.496885,-12.09976,1.069623,-3.913448,-1.872851,9.083686,2.662973
0,250,9.604495,15.1206,-8.230139,11.177,18.88007,13.04393,12.04675,16.01008,4.922093,-4.607441,23.37611,-10.07899,-16.25739,-16.95519,-5.731249,-12.60304,-10.66335,4.889125,-3.886292
0,251,7.986033,11.85246,-10.0589,8.357997,16.41342,10.2453,9.682752,12.38271,3.748565,-4.054219,20.42584,-10.03329,-14.22564,-17.69954,-5.164846,-7.403728,-3.684724,3.717276,-1.275933
0,252,22.15948,25.16854,3.41282,21.74951,29.84751,23.7058,23.63268,25.27943,18.02735,10.73326,34.41547,4.311684,0.9574196,-4.616746,10.88616,9.340337,12.93818,18.06455,14.23262
0,253,19.49762,23.11125,-0.2856148,19.31863,27.62948,21.72366,21.492,23.49453,15.76051,8.102735,32.74534,1.421985,-1.917745,-8.319139,8.243335,5.785229,8.829381,14.3091,10.26773
0,254,12.69916,17.23708,-6.399797,13.23979,21.29764,15.98782,14.83361,18.17878,9.663416,2.019882,26.36461,-4.556037,-7.742152,-14.41124,1.615334,-1.509846,1.203171,7.25567,2.874722
0,255,-2.567186,1.812539,-20.51929,-2.082789,5.828784,1.079159,-0.5639262,3.029048,-3.98034,-10.20447,10.81796,-16.75183,-18.17202,-26.85882,-12.60589,-12.28263,-7.937219,-7.84266,-9.679885
0,256,-1.009227,2.488578,-18.43203,-1.021886,7.026894,2.205302,1.011541,3.968962,-1.698129,-6.35718,11.36427,-13.26483,-12.48809,-24.60037,-10.04495,-6.368978,-0.5451223,-6.451544,-5.618189
0,257,5.286438,10.17389,-10.92912,6.262108,13.73201,10.04811,7.486494,11.99281,6.214628,1.494094,18.8302,-5.041175,-4.213015,-16.41172,-3.158873,-0.3004338,4.655469,-0.277878,0.03866543
0,258,-2.572145,1.482984,-18.46074,-2.19275,4.89013,1.318277,0.1206999,2.875788,-1.854436,-6.28461,10.39763,-12.65689,-11.63747,-23.8198,-11.03588,-7.575025,-2.140459,-8.33954,-7.406327
0,259,3.03555,7.065588,-14.57075,2.979932,10.58014,7.076164,5.958082,9.155293,3.431676,-1.465874,16.28211,-7.698803,-7.037678,-17.99103,-6.860455,-4.379759,0.9273569,-2.213929,-2.861245
0,260,17.24465,22.59971,0.01674554,18.52948,26.43753,22.01018,20.72871,24.66186,17.12534,10.84954,31.28929,5.144598,4.089988,-4.396326,4.315615,4.258139,8.217838,10.6154,7.493619
0,261,-0.514053,6.167271,-16.7377,1.798777,9.6331,5.527817,2.237487,7.939211,0.5645213,-5.887383,14.89139,-11.61171,-13.18581,-20.68149,-13.05645,-11.45459,-6.803383,-6.923351,-8.995802
0,262,-12.53856,-7.809201,-28.75929,-12.01563,-4.433591,-7.397243,-10.04927,-5.402222,-10.09273,-13.95251,1.497002,-20.31007,-18.09428,-31.29237,-21.66515,-16.22445,-9.16232,-17.17154,-15.91443
0,263,1.182514,5.773604,-14.02723,1.756662,8.549204,6.16584,4.142543,7.988748,3.619917,-0.04078583,14.55079,-6.127203,-3.95042,-17.07736,-7.026564,-2.091749,3.848283,-4.214067,-2.671957
0,264,9.12081,15.42142,-5.328923,11.12491,17.62542,15.44722,12.35698,17.50918,11.62352,6.90014,23.60262,0.9594009,1.456966,-9.224765,-0.1906727,4.337713,9.209333,2.267099,3.441539
0,265,8.409582,13.13275,-5.300434,9.80175,16.83989,13.34128,9.842418,15.43185,9.943102,6.553458,19.92626,0.7380884,2.438496,-9.342815,0.9447639,5.537984,10.54728,3.474326,4.917881
0,266,7.42347,12.26905,-4.495565,8.903505,14.8675,12.52999,8.486534,13.40406,10.6227,7.865731,19.71319,2.05359,4.178045,-8.595053,2.946731,9.587742,14.76022,2.753391,6.592587
0,267,8.053202,12.87591,-3.2873,9.421987,14.91287,13.58163,9.230315,14.71683,11.91027,9.983994,19.93246,3.994395,7.388326,-7.377687,4.961284,12.14875,17.52574,3.783343,8.337407
0,268,9.142917,13.56896,-2.044098,10.28165,15.78306,14.43483,10.73877,15.83875,12.8612,11.34689,20.21731,5.546601,9.440557,-5.454436,5.264947,13.09515,18.85371,4.6508,9.367976
0,269,-1.119749,3.105379,-10.97825,0.2102721,5.492254,3.903248,0.2216012,4.423857,3.50188,2.601584,9.71553,-2.879927,1.233462,-13.62452,-3.923257,6.069403,12.13447,-6.461542,0.4548137
0,270,-11.65235,-7.938365,-21.32255,-10.79171,-5.620724,-6.708344,-10.14588,-6.326712,-6.092683,-5.986526,-1.18714,-11.47315,-5.906711,-22.72159,-13.42267,-2.042987,4.817449,-16.87771,-8.663577
0,271,3.871942,8.39893,-4.532248,5.65162,10.48297,9.303902,5.461035,10.18475,9.118465,8.554867,14.27372,3.682001,8.260583,-6.851161,0.9700777,9.602715,15.0498,-1.239422,4.588903
0,272,8.541115,12.97082,0.9666149,10.37732,14.87703,13.67426,9.650039,13.9903,14.0992,13.3967,18.95188,9.075873,13.04892,-0.7758744,6.469421,14.11522,18.72039,3.998508,9.277809
0,273,13.77805,17.8856,5.437208,15.38178,19.98764,18.38113,14.74636,18.75111,18.38433,17.09332,23.72151,13.01444,16.13224,3.493775,11.94643,16.61081,19.6457,9.263285,12.76944
0,274,13.68432,18.14261,6.393291,15.34033,18.67699,18.39308,14.79057,18.46217,18.06033,16.04605,24.11794,12.31163,13.94335,4.090631,12.26506,15.86689,18.32423,10.08528,12.69791
0,275,10.10964,14.84357,3.959984,11.91039,14.16852,15.51595,11.25168,15.50043,15.4132,14.12582,20.0462,10.49179,12.74333,2.099787,11.63745,15.15487,16.57293,6.233341,10.00478
0,276,6.874031,11.33619,0.7376892,8.959341,11.81001,11.91532,7.930559,12.14708,11.36116,10.31841,15.40174,6.764663,9.033853,-1.421448,7.830321,11.64116,12.67877,1.498786,5.889503
0,277,7.940023,13.12974,2.820442,10.75395,13.55937,13.45229,8.437912,14.00708,12.27844,10.69,16.70222,7.567067,8.892118,0.4800141,7.757099,10.42291,11.32801,3.698478,6.388702
0,278,16.22263,21.44504,9.196898,18.95716,22.44735,21.32348,17.15869,21.75842,19.60028,16.73222,25.6522,13.73183,13.46912,7.10647,14.45928,15.115,14.73741,10.58874,11.85432
0,279,16.48561,21.39477,10.52697,19.37274,22.4855,20.71885,18.14725,21.34384,18.47817,15.00299,25.16888,12.43871,11.18331,6.561436,12.41328,11.55205,11.09441,10.51687,10.21385
0,280,9.996153,15.65455,4.969288,13.40693,16.12144,15.10727,11.85755,16.40909,12.12747,8.609503,18.76592,6.184967,4.825594,1.11811,4.806039,4.271998,4.46643,4.654833,3.78255
0,281,9.326469,16.15514,3.836839,13.11407,14.9967,15.56118,12.78942,17.03998,11.82371,7.235967,19.74692,4.93854,2.252659,0.6717706,2.9109,1.840837,1.344213,2.350562,1.054572
0,282,11.10677,17.95366,5.18023,14.92848,17.37962,17.40885,14.11569,19.01346,13.97753,9.508929,21.9028,7.053813,5.087743,1.639151,5.030497,2.744375,2.21207,4.833369,2.664675
0,283,-1.022217,4.170633,-8.303411,1.294796,4.131326,4.22057,1.608233,6.096642,1.062805,-2.319877,7.82685,-5.003011,-5.670081,-9.989652,-6.32575,-7.261259,-6.651083,-6.0022,-7.362627
0,284,4.5205,9.924687,-2.577416,7.031948,9.892021,10.05739,7.208604,11.98616,7.096312,4.013882,13.77901,0.9182701,1.138134,-5.612684,-0.09787183,-0.9382342,-0.1817344,-0.5792037,-1.531095
0,285,15.30831,22.51646,7.615151,19.19507,22.49618,21.95748,18.50932,24.13284,17.54461,12.5083,26.72107,9.512161,7.322131,3.641859,7.707497,5.339115,5.086939,8.557184,5.852517
0,286,5.854248,13.257,-2.899398,9.470409,12.75219,12.70215,9.203077,15.1803,7.341328,1.643957,17.72555,-1.578512,-4.746506,-6.334203,-2.923633,-4.797177,-4.33807,-0.3524655,-3.446229
0,287,4.69617,11.85489,-4.599803,7.842599,10.9041,11.36607,8.481253,13.86786,5.911349,0.1021544,16.78407,-3.346021,-6.542051,-8.066682,-4.431025,-5.798016,-4.772532,-1.274816,-4.251346
0,288,7.978458,14.18291,-0.8916789,10.75497,13.60278,13.24395,11.91092,15.4927,7.323068,1.21232,18.49103,-1.995627,-6.408141,-5.300916,-2.337209,-3.151632,-2.160992,1.462219,-1.26215
0,289,6.369787,12.05308,-3.773602,8.813665,12.30649,11.18591,10.34576,14.06058,4.563056,-1.498839,15.91729,-5.087615,-9.017907,-9.253512,-4.177638,-6.568147,-5.92014,-0.4359064,-3.990908
0,290,-9.513206,-4.838672,-20.31616,-7.937211,-4.400003,-5.11646,-5.714423,-2.040616,-11.61868,-16.5079,-1.648344,-20.47962,-23.03444,-24.88614,-18.29398,-19.13873,-17.89766,-16.29223,-18.02493
0,291,-12.59364,-9.408021,-25.00988,-12.50799,-8.89141,-9.406191,-9.312778,-6.997555,-15.28796,-19.59864,-5.498938,-24.20373,-26.17886,-29.11055,-18.96403,-18.32954,-16.66629,-18.7278,-18.63789
0,292,-13.16144,-9.801866,-26.67708,-13.35666,-9.455789,-9.603373,-11.34901,-7.488179,-15.41839,-19.92937,-5.382881,-24.63697,-27.03877,-29.10886,-17.42287,-17.49112,-16.37273,-17.37808,-17.76541
0,293,-7.173636,-3.829078,-20.73952,-7.085655,-2.771857,-3.627346,-5.409389,-0.7125038,-10.51727,-15.00728,-0.7180976,-19.64786,-22.14004,-23.6292,-12.61688,-13.27571,-12.53571,-11.78897,-12.8975
0,294,0.7771291,3.090824,-13.50771,-0.0007164618,4.491626,3.256674,2.442877,6.750224,-3.982686,-8.583485,6.282134,-13.30643,-15.46037,-17.67295,-5.394202,-8.805683,-8.005525,-1.841316,-5.587925
0,295,-2.262619,-0.1133585,-16.29183,-3.124828,1.623318,-0.2141126,-1.967981,2.492707,-6.463927,-11.32986,3.942196,-15.64754,-18.32933,-19.68648,-7.348199,-12.09914,-11.56225,-2.92942,-7.800472
0,296,2.79549,3.940974,-11.77749,1.062622,5.360835,3.936938,4.240684,6.560117,-2.001954,-6.679276,8.034823,-10.82729,-13.29028,-14.81403,-2.248955,-7.63164,-7.733313,1.033857,-3.741109
0,297,1.231976,3.944949,-12.35709,0.1882012,3.283886,3.988292,3.378168,7.21619,-2.785401,-8.204082,8.470441,-12.49921,-15.40297,-16.66945,-4.337216,-11.08627,-10.87453,0.788904,-5.706184
0,298,-13.81427,-11.81825,-27.41646,-15.39671,-11.71621,-11.24018,-12.82732,-7.846708,-17.38587,-21.56708,-7.697788,-25.88919,-27.32953,-29.65062,-18.62079,-23.15645,-21.31166,-12.38608,-17.84879
0,299,-17.7709,-17.06091,-31.34425,-20.29403,-16.92316,-16.28892,-16.88231,-13.04827,-22.18926,-25.59429,-13.29618,-30.15846,-30.8977,-33.98108,-21.40019,-24.79843,-22.418,-15.91012,-20.14374
0,300,-16.18418,-16.68516,-29.92721,-19.06516,-14.4985,-16.06264,-15.35385,-12.86521,-20.88046,-23.53413,-12.664,-28.19559,-27.27514,-33.8231,-20.91059,-24.40204,-21.1147,-14.59852,-18.93451
0,301,-19.66028,-19.41803,-32.80869,-21.99312,-17.59372,-18.53845,-19.35299,-14.73061,-24.10612,-26.62956,-16.4074,-31.14496,-30.26556,-36.01531,-24.00167,-27.79551,-24.76172,-17.2971,-22.11968
0,302,-16.35966,-16.77894,-30.30197,-19.63706,-15.378,-15.37676,-16.02571,-11.59887,-20.2607,-22.03902,-13.18191,-26.89167,-24.69681,-32.45684,-19.32214,-22.20642,-18.52373,-12.90154,-17.05377
0,303,-1.94828,-1.646821,-14.20347,-4.477881,-0.89483,-0.8493226,-1.829087,2.513149,-5.729039,-8.400583,2.307666,-12.8484,-11.98715,-18.12615,-5.335611,-9.907632,-6.920325,2.334172,-3.419202
0,304,-0.5510315,-0.0972919,-11.99958,-2.956633,0.387035,0.6492664,-0.3152532,3.940409,-4.069937,-6.756706,3.89528,-10.90523,-10.33888,-15.14976,-5.113348,-8.213641,-4.375096,4.175781,-1.374546
0,305,5.649757,6.422342,-5.905694,3.476111,6.650686,7.109004,6.423602,10.82017,1.583163,-1.566736,9.81129,-5.418265,-5.66311,-8.662817,-0.02570885,-3.989194,-0.9426595,9.627357,3.241451
0,306,0.7639526,2.32613,-9.702197,-0.4396484,2.505403,2.956923,2.159607,6.372824,-2.03866,-4.980297,5.308497,-8.504556,-8.494061,-12.49501,-4.078921,-8.340344,-6.524504,2.143311,-3.139675
0,307,4.483481,6.183877,-4.661672,3.719674,6.372829,6.638737,6.839415,9.351027,3.024288,0.4783547,9.725352,-2.845752,-2.097058,-8.060055,-0.4280899,-3.474513,-1.549942,3.874559,0.1340506
0,308,8.329773,10.14404,-1.264343,7.097399,9.372441,10.76026,11.42118,13.79061,7.328657,4.494582,14.80409,1.120207,2.1952,-4.335066,2.3118,-1.534968,1.247745,9.235688,3.884901
0,309,5.648797,7.752806,-3.308368,4.532332,6.377019,8.524542,9.078248,11.75666,5.054676,2.436115,12.35619,-1.003638,0.4361506,-6.456738,-0.6097689,-3.528355,-0.02961958,6.849549,1.844617
0,310,3.711353,6.27843,-5.672227,3.240348,6.308544,7.163308,6.07414,11.19498,2.78831,0.340399,9.803042,-3.231928,-1.50568,-8.513577,-3.44643,-6.110961,-2.318547,5.262887,-0.1475786
0,311,3.482779,6.392108,-5.3634,3.306608,6.33537,7.140782,5.705022,10.94606,2.628098,0.02775945,9.956431,-3.550245,-2.457855,-7.840605,-4.707203,-4.764348,0.07795577,4.999974,0.7660019
0,312,-6.305002,-3.939905,-13.74792,-6.911408,-4.774069,-2.891258,-4.572714,0.2006202,-6.290277,-7.775265,-0.2917465,-11.54907,-9.388879,-16.27847,-11.67793,-9.354745,-3.618763,-3.844505,-5.674038
0,313,-0.1234974,0.8056171,-7.134106,-1.501418,0.6976479,2.183234,0.7489222,5.324533,-0.981338,-1.166597,3.229038,-5.0267,-1.691977,-9.645678,-3.835896,-0.1786109,5.768086,3.192166,2.660002
0,314,17.75356,18.6763,9.112281,16.16058,18.54587,19.841,19.39962,23.30963,15.31078,14.03031,20.78197,10.34041,11.80947,7.551497,11.89757,15.18142,20.04939,19.62845,18.33352
0,315,16.1166,17.7879,7.966829,14.88559,16.38606,18.41109,17.93134,21.06121,13.93209,11.27843,20.77825,8.171464,7.333087,6.732112,10.40057,11.8257,15.37589,17.90713,15.44075
0,316,7.593076,9.098405,-0.2439459,6.308465,7.989624,9.952422,9.250988,12.22918,6.641361,4.793734,12.48656,1.602499,2.080947,-0.9344258,3.058998,5.621033,9.758206,9.238756,8.085486
0,317,-4.240595,-2.840219,-10.43126,-5.277914,-4.176478,-1.502335,-2.975519,0.5980586,-4.300781,-4.631112,-0.7709744,-7.936951,-6.013287,-10.93052,-5.850194,-0.7854119,3.447929,-3.371908,-1.412495
0,318,-8.09715,-7.585714,-13.39856,-9.497849,-8.549251,-5.96818,-7.112792,-4.292749,-7.749949,-6.748197,-6.007382,-10.17784,-6.762643,-13.98265,-7.695266,-0.6328333,4.012942,-7.606757,-3.282869
0,319,-2.433262,-1.727,-8.681156,-3.968052,-2.481468,0.3089568,-2.645022,2.084562,-1.391388,-0.04677066,-0.1061101,-3.665277,0.2707295,-7.533535,-0.3924332,6.885034,11.3375,-0.5429711,3.832018
0,320,4.39193,5.636544,-2.689717,3.147539,4.437378,7.4285,4.596488,9.448783,4.355705,4.629813,6.806707,1.052889,3.266161,-1.887356,5.971045,11.55794,14.36498,4.997729,8.497028
0,321,2.329783,4.012082,-3.813259,1.524082,2.222947,5.546243,2.844774,7.432092,2.496145,2.222098,5.010687,-0.6495976,0.5689847,-2.71485,3.745482,7.141895,8.706195,2.63749,4.753315
0,322,5.36773,6.857777,-1.411802,4.235882,4.942019,8.407362,5.571445,10.43258,5.071376,4.48182,7.881213,1.742774,2.516894,0.1482209,7.097937,8.729724,9.600864,6.613086,7.342974
0,323,2.976374,4.055161,-4.276984,1.574806,2.694412,5.544318,3.154501,7.80097,2.128506,1.392563,5.006581,-1.057687,-0.4686644,-1.989214,3.49401,4.280312,5.252089,4.630883,4.212947
0,324,-7.135401,-6.092,-14.67936,-8.455393,-6.833388,-4.903663,-7.76969,-3.048323,-7.982547,-9.032572,-4.408814,-11.70105,-11.25233,-13.58438,-6.006607,-6.457124,-5.423576,-4.774539,-5.798022
0,325,-13.19519,-12.47696,-20.93072,-14.84311,-13.41304,-10.98013,-13.68155,-9.068987,-14.08926,-14.57658,-11.18812,-17.47897,-16.45682,-19.43188,-11.09468,-10.27151,-9.025577,-11.30224,-10.9191
0,326,-3.838387,-3.15464,-11.76865,-5.433392,-3.914941,-1.698436,-4.181416,0.5726387,-5.180783,-5.849446,-2.253946,-8.594057,-7.66535,-10.62732,-2.030191,-3.068023,-2.747111,-2.059847,-2.966854
0,327,-9.330563,-9.311015,-18.47723,-11.52438,-9.703261,-8.089226,-10.05666,-6.112396,-11.70791,-13.03398,-8.184692,-15.41345,-15.76779,-16.15694,-7.596333,-10.45627,-11.06614,-7.262847,-9.402096
0,328,-13.88902,-14.16002,-22.14466,-16.26369,-14.91411,-12.86159,-14.29543,-10.76338,-16.4943,-17.2388,-12.98742,-20.28485,-19.61196,-22.19227,-12.16915,-12.96459,-11.81647,-11.32286,-12.1367
0,329,-18.61167,-20.43349,-26.55357,-22.00039,-20.53327,-18.78079,-20.44166,-17.12744,-21.35717,-20.63758,-19.48067,-24.05871,-21.67778,-26.89232,-13.86919,-13.33586,-11.36381,-14.08545,-13.34652
0,330,-13.25285,-15.61808,-21.66714,-17.16206,-15.76965,-13.79424,-15.72098,-11.95058,-16.95015,-16.10733,-15.34383,-19.53783,-17.48599,-21.36412,-7.672677,-7.256248,-5.699435,-7.737473,-7.162146
0,331,-0.1816044,-2.522499,-10.03439,-4.341908,-2.879503,-0.7118053,-2.451267,1.070285,-4.333538,-4.158371,-2.227297,-7.355957,-6.445438,-8.244106,5.653867,4.611749,4.409629,4.472861,4.345551
0,332,-0.4561579,-3.028723,-10.22668,-4.724018,-3.025193,-1.131026,-3.209147,0.8908321,-4.761683,-4.416037,-3.131471,-7.306252,-6.302975,-7.509851,5.129042,3.54711,3.358639,5.177306,4.19908
0,333,0.6498634,-1.547315,-8.728715,-3.282848,-1.524523,0.4391916,-1.892277,3.037582,-3.703102,-3.143825,-1.90258,-6.489851,-4.7694,-7.554649,5.358395,4.670307,5.54333,6.509696,5.692305
0,334,7.755984,6.189666,-1.192487,4.191785,5.042415,7.591618,6.665959,10.03839,2.957522,2.033322,6.32279,-0.6710303,-1.056408,-0.5023161,10.35567,7.373651,7.038063,12.41192,9.673849
0,335,13.5268,12.53318,4.312453,10.45518,11.2584,13.35087,12.50803,15.63011,7.754993,5.519285,12.77557,2.888142,0.4815853,3.813285,15.09748,10.72966,9.354227,17.39712,13.65202
0,336,11.52408,11.53491,1.286921,9.403139,10.97045,11.88518,10.77267,14.91254,4.538498,0.8578361,11.07154,-1.499244,-5.790145,0.3940718,10.55383,3.269865,0.409481,13.81649,7.739086
0,337,0.5629724,-0.2552647,-10.30784,-2.198813,-0.4998237,0.1096084,-0.08584368,3.137619,-7.150515,-10.73861,-0.7304016,-13.02614,-17.26445,-10.88251,-0.4505569,-8.419756,-11.24315,2.915264,-3.466221
0,338,0.4408187,-0.2787461,-9.845167,-2.418952,-0.9607362,0.4716088,-0.6321036,3.944382,-6.975602,-9.946826,-1.08313,-12.49166,-15.88625,-10.19835,-0.3874604,-6.621248,-8.070884,4.563601,-1.391743
0,339,1.938699,0.3898829,-8.924696,-1.497258,0.6167501,1.172612,0.5965805,4.105807,-5.047795,-7.564152,0.3503374,-10.03141,-12.70013,-8.116236,1.151097,-4.076238,-4.921875,6.214507,0.902487
0,340,-5.604928,-8.082737,-17.66456,-9.736127,-6.973661,-6.935909,-6.99966,-3.74831,-12.93577,-14.61889,-8.304431,-17.55789,-18.75377,-16.85791,-5.551692,-10.44187,-10.91129,-1.647201,-6.117346
0,341,-7.898489,-10.93349,-20.47573,-12.68955,-9.851545,-9.152472,-9.330482,-5.426962,-15.20769,-15.80418,-11.5096,-19.34734,-18.83356,-19.35979,-7.074681,-9.926608,-9.08196,-3.138354,-6.297771
0,342,-4.117595,-7.205786,-17.07343,-9.002111,-5.734324,-5.508854,-6.185011,-2.207727,-10.73431,-11.47822,-6.953907,-14.79185,-14.25345,-15.09804,-2.757421,-6.822164,-6.353103,1.545358,-2.558229
0,343,6.658448,4.836134,-5.707219,2.864059,5.476585,5.880558,5.384189,9.169325,-0.4580853,-2.654059,5.088522,-5.951972,-7.258677,-6.586576,7.361605,0.5850496,-0.7729254,10.63115,5.166198
0,344,5.775145,3.926161,-7.164011,1.694094,4.032194,4.838966,5.134623,7.988635,-1.563492,-4.362147,4.784304,-7.509186,-9.606477,-7.57369,5.740278,-1.729157,-3.308726,9.496416,3.372299
0,345,-6.635086,-9.334627,-20.16361,-11.23801,-8.20373,-8.032658,-7.121851,-4.159103,-14.83728,-16.66298,-9.330629,-20.24094,-21.00866,-20.25942,-8.019001,-12.64225,-12.26825,-3.104355,-7.745728
0,346,-13.83341,-17.41972,-28.26822,-19.33235,-15.94025,-15.47747,-14.42501,-11.47626,-21.55068,-22.15956,-17.32473,-26.12058,-24.99184,-26.94917,-13.99995,-16.83986,-15.40412,-9.833742,-12.9916
0,347,-15.79861,-19.3621,-28.74891,-21.24504,-18.59361,-17.43144,-16.48309,-14.07129,-22.14453,-22.36896,-18.57058,-26.07308,-24.26221,-27.82803,-14.25499,-17.86201,-16.53214,-10.92049,-14.1506
0,348,-6.317491,-10.75937,-18.40167,-11.96626,-9.006932,-8.817781,-7.628264,-5.463083,-12.78073,-12.32828,-10.70369,-15.34896,-12.88642,-16.70718,-4.625511,-9.313028,-8.495801,-0.608695,-4.767165
0,349,3.858307,0.1986857,-8.089508,-1.054675,1.951339,1.84288,3.156182,5.119622,-2.057612,-2.243569,0.5196913,-4.977376,-3.013457,-6.954541,5.004539,-1.725546,-2.305935,8.070888,2.869889
0,350,0.8014838,-2.574494,-11.73993,-4.004307,-1.060585,-1.050912,0.7516257,2.506806,-5.702022,-6.520392,-2.380405,-9.176254,-8.079558,-10.539,0.8347518,-6.743571,-7.813156,4.066109,-1.781294
0,351,-0.349187,-3.464239,-11.66615,-4.846331,-2.474088,-1.973085,-0.813486,1.718553,-6.916553,-7.664853,-3.78541,-10.27746,-9.260488,-11.57283,0.4492028,-7.800778,-8.993537,3.950026,-2.372901
0,352,1.729897,-1.98992,-9.70566,-3.424802,-1.006425,-0.1848242,0.8386675,3.103971,-3.924644,-3.879323,-1.483936,-6.743785,-4.370279,-9.040239,3.97116,-3.090289,-3.35968,7.357946,1.882414
0,353,3.331255,-0.1297102,-8.08608,-1.626008,1.074676,1.653432,2.279701,5.020319,-2.12644,-2.109484,0.5677007,-5.116241,-2.6362,-7.519529,4.843349,-1.276192,-0.8113077,9.269834,3.943128
0,354,-8.459911,-13.32879,-20.30292,-14.3679,-11.44431,-11.27084,-9.996033,-7.635929,-15.39072,-14.52844,-13.63865,-17.75409,-14.69276,-19.40124,-6.582818,-11.09241,-9.697068,-1.907175,-6.089877
0,355,-9.599715,-15.94413,-21.26571,-16.44645,-13.21963,-13.6611,-11.93274,-10.25155,-16.84017,-14.81244,-16.30009,-18.24989,-13.68244,-20.53827,-6.623588,-9.781237,-7.192385,-1.518375,-4.7751
0,356,-6.351139,-12.69515,-17.43268,-13.23627,-9.882948,-10.33603,-9.042531,-7.521061,-12.12733,-9.561754,-11.9471,-13.14824,-7.513632,-16.48997,-2.868243,-4.130485,-0.2350155,2.667749,0.4400685
0,357,-4.606253,-10.70512,-15.55461,-11.18847,-7.702243,-8.479136,-6.988665,-5.092273,-10.93567,-8.714653,-10.36475,-12.16183,-6.80302,-15.25224,-2.746032,-5.138739,-1.268611,4.420796,0.8235772
0,358,-1.374124,-7.268557,-12.32315,-7.927047,-4.660664,-5.167723,-3.006446,-1.288784,-8.34967,-6.714951,-7.033977,-9.907429,-5.339375,-11.83087,-1.882755,-4.562787,-0.3287487,7.768845,2.917335
0,359,5.048221,-1.169873,-7.884484,-1.857338,2.021616,0.8616114,3.779196,5.223976,-3.728739,-2.794948,-1.621246,-5.965443,-2.746959,-6.272526,2.838985,-0.01211845,3.411649,12.8096,7.590894
0,360,-9.392482,-15.95857,-22.35813,-16.41407,-12.00209,-13.99774,-11.71266,-10.01638,-18.10877,-16.93654,-16.17737,-20.18821,-16.8062,-20.54838,-10.96963,-13.16423,-9.017084,-0.7232456,-5.459893
0,361,-7.785986,-15.30022,-21.88003,-15.73121,-10.72351,-13.01759,-9.88014,-9.472501,-15.55292,-13.56865,-14.27293,-17.06749,-11.97938,-18.85856,-8.851607,-9.762528,-4.64935,0.9370902,-2.753945
0,362,-0.8581623,-8.51958,-15.45977,-9.221472,-4.917899,-6.358108,-1.556997,-2.87631,-9.252838,-7.854098,-7.046253,-11.39334,-7.102638,-12.76975,-2.910834,-3.822522,1.035999,6.706677,3.037041
0,363,12.46725,4.727178,-2.969499,4.498245,9.782547,6.409367,11.45846,10.19762,2.036211,2.592295,4.958893,-0.6560585,1.738684,-0.07368537,7.962064,7.164661,11.08431,18.45878,14.38673
0,364,16.10995,8.305055,0.2740535,8.567926,14.46232,9.50906,15.82047,13.83682,4.215601,3.92187,7.580534,1.379366,2.512652,3.031522,8.837674,5.134114,7.498284,20.15374,13.90178
0,365,8.89296,0.7856506,-7.850388,0.7911243,6.817057,2.093781,8.222608,5.638173,-2.015462,-2.197162,1.463718,-4.949716,-3.377141,-4.255157,3.494994,-0.3069635,2.106463,13.47978,7.766088
0,366,-10.45963,-19.57847,-27.18584,-19.2851,-13.04877,-17.73329,-12.58705,-14.80986,-20.63625,-19.28672,-19.10635,-22.35051,-19.16176,-22.23314,-12.14643,-13.71977,-10.62183,-4.844755,-7.882978
0,367,-12.35759,-22.40569,-29.54575,-21.46511,-14.44126,-20.94073,-15.02008,-18.95192,-22.8664,-21.44088,-21.49388,-24.42021,-21.36946,-24.77507,-13.48781,-14.91924,-12.23669,-7.815,-9.922358
0,368,-15.79651,-26.30956,-34.2823,-25.43499,-18.0278,-24.85803,-18.72813,-22.40726,-27.6924,-26.66514,-25.5513,-29.83831,-27.31042,-29.60041,-17.64853,-20.12644,-17.35815,-10.37541,-13.6958
0,369,-19.0588,-31.07277,-37.51474,-29.67697,-21.98393,-29.16382,-23.79261,-27.86337,-30.30066,-27.46641,-30.25716,-31.21518,-26.80581,-32.2503,-16.19535,-15.37233,-12.01095,-12.72017,-12.23279
0,370,-15.90666,-29.73177,-34.01668,-27.36753,-19.25879,-27.59282,-22.95871,-27.39943,-27.22421,-22.70949,-29.57921,-26.68964,-20.76148,-28.96915,-7.693146,-6.210533,-3.786325,-8.600364,-5.673082
0,371,-13.71393,-29.0007,-31.15999,-26.01896,-17.82763,-26.63847,-21.54912,-26.76398,-25.1323,-19.36082,-29.09773,-23.30338,-15.8973,-26.02762,-4.048751,-1.572519,1.579443,-4.97832,-1.214182
0,372,-4.662106,-20.59008,-22.07663,-17.6715,-9.910596,-18.05155,-13.12052,-18.28629,-16.35377,-10.33678,-20.65504,-14.22179,-6.716667,-16.5218,6.399261,8.303596,11.25543,6.028261,9.207237
0,373,6.262342,-11.29874,-12.04992,-7.482893,0.9855552,-9.177759,-2.808348,-10.21519,-6.896299,-0.9775096,-11.72106,-4.267056,2.373458,-5.834586,18.13184,18.11175,18.96646,15.81428,18.67281
0,374,12.15968,-5.345325,-6.672757,-1.383318,7.337425,-3.811352,2.554736,-5.133061,-2.01684,2.694602,-5.697689,-0.1424887,4.607067,-0.9213958,23.87765,20.29609,19.17097,21.68317,22.25733
0,375,12.78476,-4.870963,-6.981368,-0.8521674,8.225235,-3.607012,3.039781,-5.321792,-2.039032,2.044684,-5.135448,-0.5786426,2.857364,-0.2838679,24.17257,20.39863,18.42904,21.32181,21.98476
0,376,19.68175,2.339606,-0.1606851,6.224535,15.20103,3.415253,9.994983,2.132779,3.846633,7.156621,1.50747,4.885972,6.838538,7.120101,29.23215,25.02566,22.78552,28.55634,27.92729
0,377,20.92464,3.915751,1.287045,7.618612,15.96452,4.525001,11.37162,3.088659,4.20913,6.413881,3.379783,4.182873,4.480794,6.982848,30.12977,24.07301,21.13025,30.14347,28.13369
0,378,13.52172,-4.225117,-7.741464,-0.3939822,8.741514,-3.801632,3.929407,-5.776604,-3.702305,-1.796848,-3.981735,-4.066322,-4.249991,-1.029323,22.24748,16.59138,13.73597,21.89744,20.383
0,379,11.39032,-7.616142,-10.20272,-3.250695,6.62277,-7.362461,1.82941,-9.169943,-6.873724,-4.737541,-7.118293,-6.91857,-6.548773,-3.840198,17.87204,12.41269,11.02445,20.7014,18.28401
0,380,14.43819,-4.599576,-7.771443,-0.04423024,10.35662,-4.38686,5.200843,-5.695224,-4.718882,-2.779145,-4.97923,-4.769682,-4.891665,-0.7443511,19.28389,13.90456,12.125,22.4614,19.86043
0,381,10.35273,-7.12675,-8.433737,-2.497203,6.695947,-7.358847,0.9187793,-9.501021,-6.809756,-4.983398,-7.248579,-6.73947,-7.024706,-4.05833,17.05612,11.04119,8.66829,18.07976,15.98926
0,382,5.890596,-10.72815,-11.41884,-6.016007,3.158217,-10.74176,-4.370793,-12.87619,-10.11345,-7.497168,-11.59984,-9.553492,-8.939602,-7.589732,14.04917,10.35368,8.583978,13.58604,13.50647
0,383,7.923958,-9.517542,-11.52776,-4.55128,6.152479,-9.648344,-2.846493,-11.66877,-9.365047,-7.017619,-10.31186,-9.137491,-8.99701,-6.279806,14.15561,11.28144,9.998097,15.3902,15.156
0,384,5.987152,-13.44364,-14.78953,-7.945665,3.584462,-13.74392,-5.144978,-16.44787,-11.98564,-9.452269,-13.14795,-11.17793,-10.7098,-8.235663,11.94558,7.796779,6.699016,14.46801,13.16561
0,385,9.096033,-10.96429,-11.20875,-5.192012,6.354119,-11.44173,-2.793757,-15.24588,-7.904447,-5.038513,-9.45733,-6.675439,-5.572816,-5.100761,17.19086,12.19555,10.83199,18.55133,17.3407
0,386,3.323808,-15.36801,-15.24207,-9.808038,1.15793,-16.14019,-8.747385,-20.22952,-12.61963,-10.10323,-13.45502,-12.01689,-11.1947,-11.40105,11.81072,7.346718,6.508244,12.95347,12.2056
0,387,7.573421,-11.30137,-10.48503,-5.789746,4.664979,-11.91235,-4.217938,-15.45153,-8.896775,-6.24306,-9.984645,-7.997324,-7.109115,-6.584493,15.38568,10.72913,10.19241,18.18477,16.62253
0,388,13.53233,-6.663375,-4.698116,-0.3965466,10.41401,-7.519025,1.831043,-11.21156,-4.308315,-1.497769,-5.941746,-2.842036,-2.14575,-0.8788283,20.73129,15.2245,13.98408,23.36413,21.47446
0,389,7.782339,-11.64662,-9.651298,-5.565587,5.05192,-12.34988,-3.819277,-16.02912,-9.025187,-5.973842,-11.08193,-7.275377,-6.353527,-5.111957,14.9178,11.16788,10.50671,17.2084,16.44326
0,390,8.252112,-11.32876,-8.56048,-5.334608,4.931981,-11.82443,-3.650737,-16.14781,-7.154047,-3.495874,-10.04122,-4.710357,-2.934839,-3.119239,17.14765,14.23215,13.85722,18.47106,18.59937
0,391,13.89047,-7.166611,-5.07045,-1.006222,10.13778,-7.706228,2.188209,-12.19882,-2.439108,1.012401,-5.047159,0.1184876,1.76394,2.346746,21.4901,17.40584,16.89702,24.38063,23.18503
0,392,-1.734327,-22.23795,-19.74216,-16.04157,-5.100364,-22.75708,-13.31562,-26.98802,-17.84589,-14.28128,-20.7722,-15.06375,-13.47427,-12.36765,5.364522,2.060824,2.037035,8.314795,7.618709
0,393,-12.45055,-33.41032,-29.2946,-27.03932,-16.76745,-33.91875,-24.06577,-39.13006,-27.37004,-23.21434,-31.23711,-23.74571,-21.51768,-21.6488,-3.300025,-6.252162,-6.211537,-2.255831,-1.815687
0,394,-7.456356,-29.21315,-24.21601,-22.31892,-11.43291,-29.92458,-19.69999,-35.67845,-22.48489,-18.00938,-26.73654,-18.43586,-15.8792,-16.63535,1.70342,-0.6419634,-0.2649372,2.999964,3.838597
0,395,-6.086997,-27.14478,-22.19443,-20.03986,-8.978951,-27.90628,-18.47112,-32.95071,-21.76768,-17.42335,-26.34788,-17.61012,-15.70561,-14.68609,2.024848,-0.2659983,-0.5101967,3.385048,4.099352
0,396,-13.75371,-34.60854,-27.52094,-27.29984,-17.22738,-35.41127,-26.75542,-41.68344,-27.67175,-22.59556,-33.47774,-22.637,-20.18794,-20.55924,-2.318422,-3.407524,-3.813176,-4.163464,-1.308476
0,397,-6.21805,-26.54665,-19.23926,-19.44545,-9.915652,-27.66987,-18.94588,-34.70475,-19.07278,-14.53907,-24.27191,-14.3051,-12.45406,-12.56388,5.538262,3.702855,2.79608,3.310995,5.775918
0,398,-8.663374,-29.56486,-22.08414,-21.98862,-11.66146,-30.64429,-21.5307,-37.44323,-22.15502,-17.19891,-28.06255,-16.86165,-14.66445,-14.712,2.15135,1.286303,0.6358886,0.01339676,3.091992
0,399,-13.2327,-34.51855,-25.3194,-27.01783,-17.29284,-35.08594,-27.4166,-42.33003,-25.4571,-19.17634,-32.83265,-19.11667,-15.37793,-17.40191,0.5713885,2.223933,3.066447,-1.697028,3.096086
0,400,-13.87742,-35.12466,-24.47393,-27.33344,-17.786,-35.80703,-28.75227,-43.43694,-25.47075,-18.84255,-33.51877,-18.50502,-14.51834,-16.84659,0.646642,2.544955,3.597746,-1.460295,3.480796
0,401,-19.44988,-40.62345,-29.55067,-32.87521,-23.68552,-41.12428,-34.24788,-48.05573,-31.53176,-24.73976,-39.83445,-24.38781,-20.21706,-22.27596,-5.279675,-3.871178,-2.52712,-6.207095,-2.011694
0,402,-18.59253,-39.319,-27.60832,-31.93695,-23.63674,-39.78788,-33.77159,-47.02069,-29.70902,-23.0125,-37.91977,-22.52406,-18.42092,-20.51472,-3.000675,-2.561247,-1.276798,-3.436612,-0.07391571
0,403,-13.03037,-35.04026,-22.28692,-27.23277,-19.03784,-35.58081,-27.75374,-43.44996,-24.30129,-17.26935,-33.19982,-16.41872,-11.91863,-14.76562,3.336831,2.721391,3.188877,1.466866,4.852086
0,404,-13.06491,-35.23955,-21.83757,-27.02736,-18.54884,-35.92676,-28.21554,-43.6326,-24.65666,-17.55546,-33.96191,-16.42075,-11.82463,-14.92032,3.311981,0.9321935,0.7565451,1.660172,3.930647
0,405,-15.46511,-37.02373,-22.89154,-28.75504,-20.6053,-37.85955,-31.10615,-45.12598,-27.38193,-20.56876,-36.66941,-19.05681,-15.21967,-16.36785,0.1980484,-2.988149,-3.241022,0.3374396,1.352148
0,406,-12.84456,-34.5765,-20.00568,-26.29749,-18.40202,-35.53239,-29.24556,-42.98652,-24.89771,-18.3411,-34.09484,-16.53903,-13.15122,-13.6161,4.005289,-1.629888,-2.801832,4.583868,3.924618
0,407,-11.02623,-31.42361,-17.3264,-23.6854,-16.2621,-32.46345,-27.98304,-40.21958,-21.82419,-15.82484,-30.4834,-13.82798,-11.35821,-10.25504,6.37349,0.881193,-0.4631789,7.356812,6.406955
0,408,-1.589354,-22.74801,-7.458124,-14.55259,-7.268342,-24.2919,-18.09392,-32.60583,-13.32184,-7.681594,-21.49706,-5.413203,-3.773309,-1.270553,14.42994,9.356746,8.127852,16.17404,15.29433
0,409,13.5933,-7.932642,6.264458,0.484308,8.274778,-9.891706,-2.353452,-17.61116,-0.6142774,3.85048,-7.628736,6.50867,6.110048,12.63943,26.84303,19.82914,17.09955,29.94318,27.18333
0,410,17.00667,-3.156054,9.359146,4.487894,11.55425,-5.429052,2.344763,-12.7745,2.720463,5.532637,-2.354017,8.560557,6.146278,15.85047,28.19455,18.66124,14.85143,32.69161,27.54479
0,411,14.22775,-4.72838,6.676625,2.96623,11.02595,-7.272532,-0.9042413,-13.87664,-0.4059777,1.826385,-4.644881,4.725182,1.677278,12.31904,22.91575,13.81321,10.59342,29.52287,23.72784
0,412,19.02772,0.05577855,11.34681,7.863559,16.01277,-2.953375,4.713168,-9.292485,2.829604,4.161555,-0.07976152,7.197391,2.57777,16.47042,24.10466,16.2252,13.78264,33.42448,27.29948
0,413,8.766493,-9.291309,1.692405,-2.12988,5.01188,-12.11213,-3.851234,-17.92882,-6.786959,-5.786356,-9.288027,-2.522863,-7.462719,7.813253,11.75525,4.93918,3.461371,22.56677,16.35438
0,414,-3.59969,-21.98001,-9.133773,-14.19043,-6.825532,-24.9016,-15.55833,-31.04921,-18.42653,-16.49333,-21.90881,-13.26226,-16.84234,-3.836562,-2.073535,-5.3947,-4.771818,8.780446,4.962588
0,415,-1.966151,-20.47105,-8.114409,-12.88752,-4.996844,-22.78838,-14.01941,-28.92027,-15.33609,-12.21773,-19.74522,-9.682717,-10.99017,-2.09989,0.5469025,0.1847246,2.420161,10.68626,8.973716
0,416,0.8213605,-16.67638,-5.090138,-9.568018,-1.868182,-19.12393,-11.16471,-25.34031,-11.91019,-9.492155,-15.48664,-6.732936,-9.113461,1.962363,2.168603,2.566807,5.097013,13.74153,11.71352
0,417,-16.11112,-33.91309,-20.66751,-26.3231,-18.73402,-36.15168,-28.13158,-42.80741,-27.91946,-24.18253,-33.09028,-21.72827,-22.47659,-14.3148,-13.25368,-9.805435,-6.123796,-4.321275,-3.159521
0,418,-9.732493,-27.20843,-14.38596,-20.15792,-13.26168,-28.82872,-21.40823,-36.14271,-19.26423,-14.73635,-25.75673,-12.28189,-11.95485,-5.577218,-3.691066,1.133435,4.015998,1.239552,4.581137
0,419,-10.85052,-27.41235,-14.06289,-20.57199,-14.34721,-28.88349,-22.73349,-36.38107,-18.85925,-14.02,-26.0074,-11.49399,-10.6873,-5.47943,-3.023351,1.67225,4.155554,0.3586084,4.145712
0,420,-8.599565,-24.4948,-10.56982,-17.61479,-11.68394,-25.92039,-20.28214,-32.57055,-16.92281,-11.96917,-24.18018,-9.545936,-8.54179,-3.412634,-1.988419,3.17542,6.266476,2.851542,6.32035
0,421,-9.279303,-25.34011,-12.09007,-18.59012,-12.44638,-26.76775,-20.95054,-33.4031,-18.07101,-13.46722,-25.02876,-10.80534,-10.62422,-3.24247,-3.56016,1.988436,5.039892,2.123363,5.39708
0,422,-8.643128,-25.27819,-11.62761,-18.49593,-12.75791,-26.67274,-19.74955,-33.65155,-17.76312,-13.03901,-24.85758,-10.35877,-10.38198,-2.244788,-2.815181,4.054183,7.225593,1.999445,6.464588
0,423,-6.32373,-22.5766,-8.438399,-15.78927,-10.18938,-23.77134,-17.51114,-30.86967,-14.11433,-8.813806,-22.15161,-6.054046,-5.086874,1.159597,0.6123946,7.718646,10.77397,4.237383,9.253767
0,424,-11.62983,-26.83341,-12.69293,-20.31833,-14.66007,-27.74449,-23.24636,-34.91071,-17.19134,-11.35617,-26.07579,-8.485928,-6.440357,-2.011169,-3.937567,4.106706,7.789642,-0.4408207,5.06948
0,425,-14.82875,-30.07957,-13.54547,-23.25057,-18.17671,-30.75061,-26.59738,-38.47273,-18.19996,-11.03647,-29.04882,-7.913567,-3.793586,-3.139933,-5.029253,3.594863,7.776999,-3.015641,3.544177
0,426,-10.72562,-25.41862,-8.692299,-18.65455,-13.7741,-26.1042,-22.3472,-33.92759,-12.93502,-5.785297,-24.16806,-2.262677,2.128018,1.994282,-0.5091519,6.555841,9.937018,0.9937234,6.670127
0,427,0.397488,-13.77986,1.977792,-7.252457,-2.418773,-14.86122,-9.482535,-22.80275,-1.464805,4.695904,-11.36932,8.471402,12.17582,12.31041,8.044462,13.94998,16.92045,10.17294,14.74184
0,428,-2.850968,-16.21813,-1.273713,-10.08671,-5.709175,-17.1426,-11.49759,-24.3111,-4.792147,0.9356431,-14.55955,5.10338,8.082654,10.45228,2.905189,8.686086,11.32001,5.679119,9.671996
0,429,-0.9025702,-13.20559,0.7918652,-7.518479,-3.567223,-14.2241,-8.241816,-20.77324,-2.724602,2.176105,-11.61623,6.636597,8.783011,12.64243,2.640729,7.27633,9.539213,6.624507,9.214887
0,430,11.61308,-0.2304201,13.66196,5.888781,10.23145,-2.198892,4.969333,-8.868241,9.007098,12.43599,1.554966,17.61263,17.9822,23.77923,12.3299,13.25763,13.83008,17.41715,17.23149
0,431,6.914266,-3.434327,9.185658,2.23689,6.232327,-5.894587,1.246304,-12.04919,3.775184,5.639254,-1.678887,10.99005,9.320582,18.27695,4.700455,4.394339,4.718535,11.70109,9.858174
0,432,7.285282,-1.831254,8.959336,3.578231,8.009599,-4.641322,1.982002,-10.79828,4.048071,4.853041,-0.113059,10.18677,6.876445,18.34926,3.273877,3.936002,3.857181,9.888838,8.599243
0,433,-3.013084,-11.99518,-0.5423812,-6.67099,-2.802534,-14.77575,-8.986439,-21.2072,-6.372918,-5.382761,-10.47974,-0.4391243,-4.013676,8.051529,-5.710948,-3.048063,-2.282446,0.4449045,0.7080061
0,434,-10.16501,-20.95722,-7.834383,-15.22634,-11.02983,-23.04564,-17.714,-30.08685,-12.87181,-9.814861,-19.22136,-5.423108,-6.313747,1.686403,-9.059284,-3.651245,-1.366414,-4.402878,-1.547876
0,435,-11.65832,-22.90612,-9.056925,-16.93213,-12.97803,-24.79815,-18.62896,-31.63994,-14.52979,-10.73903,-21.51799,-6.825832,-6.402796,-1.291527,-9.726974,-3.872699,-1.321771,-6.718064,-2.755375
0,436,-9.681338,-20.46514,-7.197288,-14.46615,-10.03857,-22.67864,-17.16628,-30.0439,-12.22205,-8.948558,-18.69332,-4.864903,-5.370847,1.090163,-8.031888,-1.797585,0.4172449,-5.284781,-1.064436
0,437,1.199202,-9.185363,4.688103,-3.037762,0.7254881,-11.78906,-6.297359,-19.19774,-2.247279,0.3844323,-8.216156,4.664531,2.721563,11.41301,2.954661,8.10764,9.017249,5.051973,8.808589
0,438,-6.129324,-15.52686,-1.878717,-9.705017,-6.810766,-17.86156,-13.33661,-24.39554,-10.11263,-7.484359,-16.1423,-3.533206,-5.896626,3.947931,-3.981303,1.953172,2.693855,-2.796822,1.726477
0,439,-4.165506,-13.17158,-0.9042403,-7.689671,-4.89081,-15.55379,-10.84914,-21.92362,-8.275026,-6.416588,-13.69167,-2.15451,-5.466479,5.838387,-2.124491,1.2111,0.3051569,-1.647524,1.370482
0,440,-6.213453,-14.94318,-4.208185,-9.506119,-6.318019,-17.74283,-11.72861,-23.58186,-11.82078,-11.26015,-15.76372,-6.677942,-11.78105,2.682298,-7.402266,-5.740471,-7.495092,-5.750841,-4.323319
0,441,-10.44931,-18.75466,-7.483469,-13.39307,-10.74113,-21.39432,-15.22341,-26.96167,-15.54906,-14.57107,-19.79771,-10.29241,-14.57179,-1.805587,-11.72596,-8.809197,-9.78941,-10.61658,-8.147889
0,442,4.837993,-2.151234,8.76747,2.838554,4.889812,-5.022682,0.9204544,-10.61225,0.4437149,0.8494421,-2.793986,4.870231,0.102621,12.74914,2.556854,6.571739,5.782811,3.632973,6.62098
0,443,4.846735,-3.028694,8.687074,2.582312,4.86444,-6.507737,1.088465,-12.29079,-1.142772,-1.420933,-3.807559,3.137781,-2.783342,11.665,1.242699,2.472198,0.6513712,3.178119,4.280804
0,444,-3.885506,-11.95583,-1.376464,-6.698607,-3.854113,-14.81815,-8.069057,-20.29089,-9.283235,-8.899316,-12.64059,-4.588256,-9.487044,4.13251,-6.923255,-4.06381,-4.955733,-4.729145,-2.801389
0,445,-13.96972,-23.21233,-11.61911,-17.85762,-15.09941,-25.60124,-18.9752,-31.08898,-19.23289,-17.62294,-23.46955,-14.045,-16.76688,-7.351416,-14.28008,-11.39675,-11.0868,-12.33258,-9.949515
0,446,-16.61017,-26.49628,-14.13294,-21.05828,-18.11133,-28.64241,-22.75414,-34.75817,-20.88043,-18.42218,-25.98997,-15.02489,-16.49113,-9.291535,-14.68085,-10.95063,-9.891483,-13.10577,-9.925734
0,447,-12.41164,-22.96908,-10.53955,-17.41435,-14.18988,-24.96988,-19.30472,-30.5041,-18.09619,-15.52035,-23.26441,-12.22591,-13.81561,-5.541987,-10.7283,-7.249891,-5.952066,-7.27904,-4.96837
0,448,0.8826578,-9.403019,2.891854,-3.966568,-1.301019,-11.73302,-4.901654,-16.50506,-6.043928,-4.541706,-10.04296,-0.8223339,-3.629097,6.643216,0.2415967,0.2658671,0.4794244,6.030272,5.161521
0,449,5.33853,-3.49329,7.158025,1.523194,3.971996,-6.368006,0.1137584,-10.93438,-1.79954,-2.048538,-4.001281,2.152326,-2.905844,10.42915,3.263755,-0.4531937,-2.28123,9.420521,5.849331
0,450,7.194447,-1.467832,8.27061,3.298955,5.62052,-4.669096,2.533515,-9.501393,-0.2708709,-1.571502,-1.339562,3.04234,-3.549477,12.39209,4.027024,-1.228052,-3.97239,10.6485,5.828244
0,451,-0.412449,-9.000048,0.1704866,-4.360579,-2.134738,-12.28929,-4.410911,-16.69169,-8.802904,-10.55484,-9.028087,-6.145603,-13.27526,3.545076,-4.943295,-10.30732,-12.70294,2.510995,-2.640663
0,452,-3.131186,-11.63551,-2.263914,-6.953141,-4.227452,-14.6751,-7.791376,-19.43047,-10.10455,-10.88535,-10.95316,-7.181271,-12.45462,0.3420037,-6.3084,-9.073593,-9.894288,0.2907993,-2.787201
0,453,-7.660211,-16.56211,-7.044927,-11.39985,-7.994484,-19.55623,-13.01234,-24.80599,-14.51006,-14.60498,-16.29598,-11.18775,-15.83227,-4.492946,-9.148811,-10.33715,-11.44292,-5.692598,-6.430432
0,454,-8.865366,-18.41008,-8.836862,-13.16893,-9.753942,-21.03053,-14.05187,-26.3833,-15.64182,-15.06907,-18.55688,-11.5691,-15.66566,-4.463291,-9.303926,-9.351963,-10.77522,-7.736169,-7.064229
0,455,-9.349329,-18.6003,-8.601136,-13.71378,-11.16492,-20.90128,-14.70821,-26.28782,-15.40878,-14.49798,-18.82782,-11.04136,-14.84825,-3.798526,-8.063414,-7.727381,-9.163527,-7.164536,-6.061972
0,456,-9.830296,-18.66231,-8.085326,-13.90071,-12.0814,-20.93474,-14.45314,-25.78247,-16.27337,-15.29898,-19.28945,-12.32237,-15.85797,-5.559093,-9.375998,-7.850103,-8.203421,-7.648368,-6.054334
0,457,-12.00338,-21.29022,-10.70839,-15.95335,-12.93111,-23.69504,-17.06313,-28.5038,-19.03903,-17.75292,-22.39857,-14.85722,-18.10742,-8.086248,-12.83564,-9.660177,-9.338056,-10.80116,-8.209446
0,458,-8.285486,-17.11033,-7.214063,-12.00055,-8.921175,-19.49139,-12.62084,-23.74297,-15.42813,-14.47415,-18.32458,-11.50962,-14.9757,-4.285913,-11.06884,-7.770035,-7.102982,-7.476849,-5.561014
0,459,10.12119,2.28996,9.605005,7.036171,10.56941,-0.7074168,7.053398,-4.140762,1.392847,0.3012804,1.21563,3.348382,-2.379811,11.26284,3.351037,3.522419,2.853351,9.280924,8.083342
0,460,6.895585,-0.5750429,5.570543,4.201864,8.375018,-3.9722,3.77853,-7.246348,-2.684837,-4.795038,-1.803154,-1.413307,-8.699088,7.713526,-1.771661,-2.943787,-4.30341,5.285803,2.737465
0,461,13.05557,5.408638,10.56772,10.02341,14.45737,2.202308,11.18157,-0.6281567,2.963851,0.9698066,4.276377,3.789232,-3.009859,12.56118,2.550182,3.869989,3.632766,9.869556,8.724187
0,462,14.96352,8.20177,12.46187,12.41278,16.86298,5.025478,14.4081,2.65952,5.742149,3.492299,7.789351,6.100711,-0.1539997,13.8955,2.214444,4.106971,4.916917,10.96266,9.503937
0,463,13.45415,7.06758,11.71311,11.33152,15.65199,3.733062,13.06666,1.658305,4.108099,1.712931,6.543989,4.198554,-1.995768,11.53333,-0.1739494,1.448772,2.768692,9.696662,7.699155
0,464,9.983459,3.92049,7.096643,7.9818,13.04725,0.4661199,9.942311,-1.730105,0.7522779,-2.099925,4.063507,0.2388151,-6.479864,8.002192,-5.57435,-1.956569,0.2600879,5.074549,3.928424
0,465,8.263922,2.265928,5.303399,6.145043,11.52162,-0.9736918,7.797215,-3.406772,0.1778789,-2.208232,3.242177,-0.1181357,-5.843623,6.865731,-6.885322,-1.687065,1.769697,4.382427,3.972935
0,466,10.22083,5.563933,7.88104,8.94139,13.82292,2.724306,9.81496,0.7681957,3.254693,1.120115,5.891484,2.933166,-2.364925,9.525291,-3.745461,2.256499,5.421031,5.967422,6.444879
0,467,16.77939,11.70566,13.12698,15.12369,20.15822,8.589249,18.04005,6.985801,8.340024,5.406387,12.11084,7.305181,1.07546,14.50283,-0.1102555,5.246126,8.080925,10.4023,10.13833
0,468,10.95774,5.16298,5.848374,8.1905,13.57186,2.662604,12.48695,1.386556,2.909371,0.6917852,6.30694,2.229352,-2.568933,9.281933,-6.351103,0.994162,5.68202,5.832692,6.140955
0,469,19.48663,13.11654,13.38487,16.33047,22.54251,10.72656,20.40309,8.823284,12.25476,10.59883,15.13329,11.82365,8.229544,17.04612,3.958396,11.4088,15.80358,14.16842,15.36441
0,470,9.011426,1.336782,2.467933,4.670022,10.34917,-0.6661482,10.48763,-2.392358,1.111469,0.2179698,3.151492,1.269026,-1.240595,6.067739,-5.257007,1.668891,6.212442,4.026351,5.489191
0,471,-4.572041,-12.39913,-10.18685,-8.923395,-3.443487,-14.1799,-3.284543,-16.13238,-11.60976,-11.71773,-10.69223,-10.57554,-12.171,-5.936057,-17.93581,-9.601058,-4.274829,-9.312241,-6.613309
0,472,-4.734157,-11.96882,-10.27836,-8.434356,-2.644247,-14.19131,-2.992946,-16.53605,-10.96885,-11.75411,-9.368541,-10.31111,-12.24245,-6.787835,-18.68149,-12.77881,-8.461554,-10.73518,-9.285173
0,473,6.332483,-1.031855,1.083287,2.639155,8.428487,-3.302027,6.85646,-5.902952,0.07994677,-0.737645,1.221982,1.089087,-1.291295,5.164395,-5.919066,-1.796069,1.149262,1.653697,2.052916
0,474,13.70814,6.151886,7.806282,9.582499,15.34945,3.969621,13.91594,1.492232,7.301403,6.303882,8.827393,8.047554,5.695574,11.9398,1.968323,4.591861,7.259351,10.48857,9.543886
0,475,7.261353,-0.01302118,1.902438,3.433088,8.924019,-2.411035,7.140103,-4.933744,0.8066242,-0.5291394,2.757789,1.210564,-1.422457,4.492212,-3.663354,-3.292561,-1.23298,4.700414,2.538222
0,476,-4.155242,-12.56106,-9.48666,-8.827797,-2.981162,-14.56822,-4.876412,-17.7044,-9.730364,-9.696863,-9.254296,-8.171401,-9.019583,-5.548853,-13.68637,-10.18353,-6.365926,-5.891567,-5.682839
0,477,-10.2073,-18.47266,-14.15566,-14.92304,-10.14604,-19.64565,-11.08331,-23.00312,-13.85527,-12.01015,-15.57866,-11.13785,-9.512332,-10.48131,-15.27509,-9.07203,-4.797603,-11.87677,-8.20144
0,478,2.779044,-5.24056,-0.955382,-1.524136,3.207947,-6.48613,2.014923,-9.966571,-0.6429522,1.304523,-2.552663,1.933653,3.949113,1.036905,-0.9173722,4.246928,7.232058,-0.170569,3.889108
0,479,4.920089,-2.374608,1.929097,1.038641,5.278248,-4.112095,4.131624,-8.019165,1.980394,2.801476,1.351697,3.959063,4.532495,3.714265,0.4169169,3.402874,5.944348,3.094996,4.960161
0,480,-2.505844,-11.84937,-5.912127,-7.59016,-3.421867,-13.77379,-3.035993,-17.93036,-7.964772,-6.807507,-9.093384,-5.56846,-5.492909,-4.590592,-7.181744,-3.42878,-0.9688759,-5.388701,-2.356
0,481,-15.41734,-24.86487,-17.92208,-20.36733,-16.48213,-26.803,-17.4336,-31.77731,-20.64357,-19.14731,-22.73438,-17.65219,-18.24544,-15.52062,-17.27149,-12.52611,-10.72864,-17.88457,-13.21713
0,482,-17.17875,-25.54745,-19.64373,-21.68512,-17.87294,-27.09767,-20.14029,-32.29766,-20.42865,-18.64955,-22.76508,-17.5009,-17.38811,-16.37123,-16.51717,-11.26779,-9.43615,-18.42448,-13.09647
0,483,-13.22884,-22.64507,-15.85186,-18.57103,-15.04448,-24.05129,-16.16605,-29.7358,-16.64372,-14.26505,-19.65271,-13.25012,-12.50322,-12.56239,-11.01448,-5.105049,-3.329651,-14.44495,-7.985955
0,484,-16.32248,-26.41631,-17.95228,-21.82418,-18.33665,-27.4275,-19.32441,-33.22592,-19.29179,-15.5196,-24.51721,-14.28782,-12.25432,-13.25522,-13.20403,-4.4376,-2.167851,-18.4034,-9.444044
0,485,-18.99171,-29.47957,-21.11203,-24.91243,-21.56155,-30.3569,-22.026,-35.70381,-22.99552,-19.34672,-28.37168,-17.83083,-16.4058,-15.25925,-16.19909,-8.26475,-6.467839,-20.6071,-12.52388
0,486,-19.95842,-30.206,-21.70911,-25.73668,-22.72156,-31.17284,-23.76395,-36.73174,-23.97874,-20.61091,-29.20251,-18.96836,-18.23605,-15.95887,-15.80011,-9.100163,-8.093324,-20.57508,-13.12721
0,487,-21.10003,-32.83969,-22.76052,-28.01843,-24.79703,-33.51102,-25.71424,-39.83015,-24.41588,-19.77755,-30.99929,-18.24287,-15.74679,-16.15249,-15.07205,-6.700501,-4.423519,-19.95567,-11.21378
0,488,-14.42516,-25.32594,-15.52084,-20.64598,-17.35803,-25.83887,-19.75956,-31.68079,-17.52423,-12.78564,-24.36217,-11.34763,-8.903419,-8.861334,-8.179315,0.9026032,3.171472,-12.66266,-3.810468
0,489,-0.4316145,-12.19664,-2.565203,-7.385329,-4.251369,-13.09926,-4.399503,-18.45885,-5.734418,-2.008583,-11.26568,-0.2318767,0.9093943,3.35996,2.882411,9.420682,10.95408,0.7778631,7.115125
0,490,7.733014,-2.973757,6.196908,1.895614,5.303256,-4.565802,3.578789,-10.07058,2.214838,4.705908,-1.940104,6.828835,6.197086,11.064,9.178656,14.52981,15.37631,8.367381,13.34116
0,491,3.22698,-6.857597,1.904049,-2.17592,1.001228,-8.550924,-1.262289,-14.44796,-1.823791,0.2765442,-5.844758,2.640013,1.041323,7.645339,5.559063,10.77473,10.77303,3.419085,8.727414
0,492,-2.057642,-12.43927,-4.152076,-7.941797,-4.897017,-13.9429,-6.340153,-19.39214,-7.99541,-5.993165,-11.84755,-3.679797,-5.631072,2.358343,-0.1712634,5.107793,5.252338,-1.559891,3.479874
0,493,-9.951195,-19.81157,-12.263,-15.8563,-12.91267,-20.99853,-14.27897,-26.10651,-15.20501,-13.17202,-18.89349,-10.96185,-12.69129,-4.440932,-8.493812,-2.192873,-0.9415466,-8.22537,-3.31072
0,494,-5.397151,-15.25508,-7.039679,-10.99807,-8.052538,-16.6981,-10.11168,-22.0808,-10.81052,-8.783793,-14.41884,-6.710686,-8.476768,-0.9325193,-3.327977,2.682904,3.656805,-3.780255,1.343254
0,495,8.674003,0.5983019,6.83284,4.175672,6.635638,-1.288023,5.06762,-6.2389,2.993845,3.175022,1.443508,5.605458,1.348356,12.79132,8.313297,12.35558,11.79994,8.824853,11.95484
0,496,2.50774,-4.756878,1.339428,-1.013824,1.480183,-6.733945,-1.043398,-12.05725,-2.602727,-2.379014,-4.76432,0.2459917,-4.661611,8.076933,2.621037,8.599727,7.258377,-0.06757711,5.414302
0,497,0.8449838,-6.190107,-0.4389209,-2.204922,0.418013,-8.363724,-1.499673,-13.56323,-4.593474,-4.449426,-6.417895,-2.241526,-6.879361,4.107862,0.2046474,6.440701,4.812955,-4.704113,1.926161
0,498,-10.92651,-17.82766,-12.57873,-14.35347,-12.01787,-19.81434,-13.31469,-25.03092,-15.94325,-15.91733,-17.27824,-13.85774,-18.53041,-7.108261,-11.56034,-4.654956,-5.196486,-15.04662,-8.551598
0,499,-16.87128,-25.56419,-18.11032,-21.43496,-18.7483,-27.31167,-20.41046,-33.25947,-22.01637,-20.51551,-24.94681,-18.62471,-21.88756,-11.75838,-16.24911,-5.479086,-3.980496,-19.44644,-10.37413
0,500,-6.849371,-16.57193,-8.314442,-12.29383,-9.86615,-18.04263,-10.69014,-23.7455,-12.78708,-10.69174,-16.31861,-9.023213,-11.46941,-2.535451,-4.937846,5.16218,6.553038,-8.001743,0.6892231
0,501,9.188824,-0.3450393,6.455923,3.788207,6.36175,-2.149304,6.657648,-7.193929,2.034437,2.896045,-0.04724163,4.824862,1.225703,11.49615,8.671856,15.07687,14.85782,6.751329,12.53952
0,502,3.770782,-5.638619,0.006008681,-1.411938,2.119372,-7.847345,0.8844573,-12.79323,-4.273183,-4.342799,-5.275234,-2.119425,-7.115616,5.77793,1.101767,6.574373,6.194279,1.096459,5.525299
0,503,1.405021,-8.598992,-3.756697,-4.769471,-0.9532702,-10.51267,-1.365302,-14.93539,-7.014529,-7.001628,-7.292077,-5.29743,-9.426679,2.052519,-2.231542,3.284704,4.593648,0.8950053,4.203452
0,504,7.298103,-2.444391,1.646359,1.117664,5.084419,-4.389479,5.123353,-8.85732,-0.5760219,-0.8594848,-0.2962068,0.8552268,-3.243686,7.934611,2.520553,8.212989,9.86719,6.505944,9.47747
0,505,5.547429,-3.215738,1.444606,0.3994801,4.575805,-5.067595,3.128948,-9.322022,-0.6933355,-0.4585243,-1.179881,1.349797,-1.6069,7.44626,0.3999403,6.864463,9.352515,5.051741,8.174191
0,506,4.701252,-3.768512,1.229658,-0.2276316,3.717288,-5.6325,2.872231,-9.683389,-0.8530239,-0.6848128,-1.4565,1.51132,-1.110404,7.36474,-1.313596,3.725236,6.196015,4.440077,6.196157
0,507,-4.392597,-12.6014,-6.957907,-9.317581,-5.745728,-13.92909,-6.526884,-17.92075,-8.106583,-6.843771,-9.832705,-5.007469,-5.491749,-1.02437,-8.299848,-2.704937,0.8278591,-3.077849,-0.6934407
0,508,-7.441305,-17.00581,-10.42085,-12.8025,-7.975893,-18.29369,-10.32823,-22.12147,-12.16924,-9.906777,-15.02095,-8.314215,-7.43312,-5.20238,-11.50448,-5.028952,-0.7848145,-6.312664,-3.090413
0,509,2.139677,-7.219293,-0.8281199,-2.854284,2.181119,-8.788793,-0.2411849,-11.98023,-3.408813,-1.794587,-5.741285,0.2216107,0.4652636,3.715977,-3.976015,-0.2037862,3.119811,2.914491,3.70129
0,510,-2.505421,-12.54186,-4.099765,-7.927704,-3.290737,-13.91898,-5.60079,-17.54626,-7.332049,-4.644283,-10.71098,-2.851329,-1.119552,-0.3568234,-6.941259,-1.603666,3.195605,0.2622873,2.129975
0,511,-4.172812,-14.27606,-5.516368,-9.74058,-5.439272,-15.51233,-6.759549,-19.6749,-7.792735,-4.617539,-11.61343,-3.038651,-0.2722566,-2.046396,-7.257824,-1.221657,3.760168,-2.090159,1.077201
0,512,-0.06867743,-10.5374,-3.74927,-6.606704,-2.247446,-11.67313,-2.10443,-16.19551,-4.138363,-1.589842,-6.766153,-0.2917004,1.496937,1.648832,-3.472425,3.861352,8.932276,1.496025,5.415434
0,513,-1.030677,-11.7749,-5.062207,-7.674713,-2.95403,-12.87137,-3.093597,-17.22238,-5.610917,-2.927269,-8.452732,-1.616789,0.137314,0.8670182,-5.123587,3.111398,8.437084,0.1000801,4.479432
0,514,0.03793108,-10.63655,-4.32015,-6.631803,-1.955957,-11.55995,-2.022498,-15.44617,-5.155287,-2.456358,-8.080689,-1.230926,0.281689,2.00097,-4.229489,4.421372,9.623024,1.061321,5.596073
0,515,-2.754506,-14.36083,-7.243938,-10.36061,-5.831504,-14.98937,-5.32673,-19.40101,-7.57569,-4.109039,-11.19502,-3.072851,-0.6968731,0.09575234,-5.590796,5.036957,11.36326,-0.3071817,5.56764
0,516,-2.645954,-15.30049,-7.289745,-10.72993,-5.325787,-15.75941,-5.824527,-20.19647,-7.608832,-3.120423,-12.32423,-2.274025,1.570166,0.1711263,-5.492739,6.832446,14.32385,0.2333803,7.154853
0,517,-5.929689,-17.50152,-8.70286,-13.09095,-8.314814,-17.92301,-10.05917,-22.85571,-9.272856,-4.556175,-14.66865,-3.51231,0.2580822,-1.022906,-6.626157,6.337114,13.52979,-2.299469,5.470655
0,518,-12.38393,-23.38998,-14.44705,-19.48807,-15.69384,-23.66874,-16.17746,-28.65882,-14.83815,-10.246,-20.05699,-9.148297,-5.411241,-6.658979,-12.2575,0.1802833,7.486386,-7.826947,-0.4670279
0,519,-16.61243,-28.29585,-20.58109,-24.39095,-20.23551,-28.88436,-19.27018,-33.08677,-21.75104,-18.23823,-25.16804,-17.29438,-14.9579,-13.57727,-19.95033,-8.631126,-1.063124,-12.86563,-7.136138
0,520,-16.6164,-28.78636,-20.32121,-24.23377,-19.11095,-29.42735,-19.96872,-33.26437,-22.30848,-18.2434,-26.43611,-17.30643,-14.15734,-13.96817,-20.85656,-9.216067,-1.022824,-12.59419,-6.999691
0,521,-7.777308,-21.36899,-10.01333,-16.31434,-11.59422,-21.27625,-11.8929,-25.87213,-11.70071,-5.277965,-19.16174,-4.18809,1.854101,-1.883961,-8.318632,6.10967,14.97932,-2.479421,5.863128
0,522,-0.4892076,-13.96206,-2.042634,-8.645536,-3.606468,-14.05159,-5.230439,-19.09542,-3.56002,2.971339,-11.42763,4.359796,10.68252,5.995852,-0.4113728,13.11649,21.48117,5.127455,13.00737
0,523,-7.03909,-20.84749,-8.661102,-15.29837,-9.695776,-20.6537,-12.5338,-25.89357,-9.277571,-1.857672,-18.34933,-0.567626,7.076673,0.1267084,-5.409121,8.743421,17.33271,-1.177737,7.680315
0,524,-2.601115,-17.12679,-5.519528,-11.53103,-5.609206,-16.93302,-8.027152,-22.53789,-5.061088,2.277616,-14.08598,3.625529,11.23978,4.077979,-0.2743585,12.76102,20.47484,2.817967,11.43915
0,525,-7.443199,-21.81814,-9.398517,-16.26537,-11.09661,-21.53232,-12.77503,-26.81698,-10.12844,-2.816465,-19.67599,-0.9346144,6.126954,1.011252,-5.06732,7.093703,14.27714,-1.493051,6.323297
0,526,-4.251316,-17.78191,-4.908352,-12.19743,-7.390416,-17.5444,-9.796899,-22.78824,-6.278312,1.142766,-16.10519,2.933433,10.20481,4.028612,-0.8380961,10.95413,17.60165,1.405254,9.48675
0,527,-1.97781,-14.40127,-2.589444,-9.400011,-5.21531,-14.31874,-6.930621,-19.08982,-4.020275,2.309293,-12.57952,4.304817,10.366,5.928231,0.5521196,9.703326,15.42225,3.961554,9.763387
0,528,-14.9207,-28.11514,-15.14383,-22.52462,-18.14604,-28.37673,-21.37999,-33.6962,-18.07447,-11.80574,-26.85825,-9.566106,-4.415558,-7.062502,-10.92243,-2.833241,2.233491,-8.045822,-2.434924
0,529,-13.39391,-26.95343,-12.65163,-20.96481,-16.92588,-27.16267,-19.80258,-33.03054,-16.00994,-8.943936,-25.89706,-6.848715,-0.7551363,-5.577414,-7.446384,1.60938,6.366488,-7.608344,-0.06922172
0,530,-4.335433,-17.37333,-3.897334,-11.8427,-8.355636,-17.78919,-9.866316,-23.44185,-7.249973,-1.232228,-15.87709,1.146383,5.981159,3.20942,0.2454433,7.35575,11.35405,1.437921,7.057872
0,531,-4.644114,-16.94723,-4.264036,-11.62496,-8.471935,-17.49764,-9.728836,-22.81761,-8.039632,-2.753113,-16.09232,-0.1599653,3.423142,2.846487,-0.5679935,5.234616,8.006375,0.02588083,4.928984
0,532,-16.83696,-29.36316,-14.84671,-23.55009,-20.56974,-29.9307,-23.36595,-36.33602,-19.1114,-12.85027,-28.54689,-10.39141,-5.945543,-8.564577,-9.110624,-2.049022,0.7062265,-11.79701,-4.567908
0,533,-18.02924,-31.36002,-15.59813,-25.10983,-22.34675,-31.81674,-25.84528,-38.86129,-20.68989,-13.67169,-31.31565,-11.36448,-6.743396,-9.501622,-6.928794,0.9545608,2.939491,-12.69342,-3.588376
0,534,-21.17356,-34.98688,-19.35923,-28.66633,-25.50541,-35.2981,-29.75802,-42.56682,-23.75772,-16.36037,-34.70416,-14.29683,-9.114832,-12.98947,-8.7074,-0.707751,1.393674,-15.08758,-5.576878
0,535,-14.44472,-28.90309,-12.5814,-22.4328,-19.64409,-29.36085,-22.06943,-36.44864,-17.56862,-10.41251,-28.36703,-7.921458,-2.712025,-6.729873,-2.995303,2.273813,3.750799,-8.221845,-0.814523
0,536,-10.76261,-25.4543,-9.190823,-19.00985,-15.92502,-26.14393,-18.5532,-33.24112,-14.17676,-7.490857,-24.18437,-4.819953,0.01278712,-3.316258,-0.7597949,3.557136,5.577097,-3.159318,2.56
0,537,-13.20087,-28.46362,-12.26221,-21.41379,-17.24337,-29.32179,-22.08059,-36.41447,-17.58624,-10.83776,-28.06194,-7.942684,-3.439605,-5.926019,-3.074636,0.3410582,1.503226,-5.939354,-0.5231164
0,538,-23.48176,-39.39844,-22.23055,-32.08208,-28.09421,-40.34059,-32.40593,-48.10107,-27.82953,-20.75493,-38.66591,-17.86302,-13.21714,-15.94935,-12.51525,-8.021044,-6.465497,-16.53309,-9.796426
0,539,-21.44227,-38.13949,-19.54326,-30.59623,-27.48042,-39.03356,-29.97066,-47.0427,-26.29078,-18.79904,-37.6778,-15.95973,-11.02149,-14.31703,-9.077619,-4.72321,-3.543121,-14.63258,-7.226531
0,540,-23.93601,-39.50114,-20.89666,-32.20431,-29.68315,-40.76377,-32.93222,-48.75308,-28.4742,-21.96717,-39.05809,-18.62331,-15.05995,-16.4378,-11.24665,-10.35704,-10.52979,-16.01796,-11.15831
0,541,-15.22953,-30.22065,-12.94808,-23.01566,-20.10766,-31.97007,-24.97256,-40.15368,-20.66772,-15.43604,-29.89444,-11.87825,-10.51354,-8.402764,-2.90343,-3.663175,-5.393534,-7.576027,-3.933487
0,542,-2.7574,-17.25051,0.1527477,-10.22601,-7.687054,-19.21933,-12.90372,-27.27515,-8.700592,-4.094387,-17.14192,-0.4021053,-0.2543552,4.343432,8.727433,8.060545,6.37652,6.111379,8.860467
0,543,-6.736405,-21.21278,-3.85558,-14.41499,-12.46991,-23.21711,-17.18595,-31.12816,-13.56372,-9.348505,-21.31708,-5.881804,-6.52613,-0.5852174,5.480239,4.042026,2.176759,3.233736,5.426148
0,544,-0.7113335,-14.10497,1.379988,-7.919532,-6.392013,-16.36674,-9.873372,-23.76618,-8.055878,-5.184451,-13.83657,-1.936466,-3.895184,3.240753,9.895944,6.449977,3.730735,8.067846,8.698739
0,545,1.202682,-11.87441,2.50905,-5.765625,-4.02912,-14.36407,-7.906335,-21.30403,-7.154522,-5.291961,-12.25423,-1.453298,-5.046727,5.33989,10.64859,4.130602,-0.3436792,9.574483,7.829803
0,546,-9.150185,-21.98125,-6.661651,-15.63946,-13.48193,-24.47493,-18.34157,-31.42433,-16.63973,-14.16928,-22.19836,-10.44048,-13.03898,-4.026114,-1.308029,-4.608506,-6.724574,-0.5811102,-0.9322703
0,547,-17.30385,-31.03314,-14.36573,-24.297,-22.1803,-33.11551,-26.66493,-40.33904,-24.42836,-20.56006,-31.71461,-17.09822,-18.08367,-11.34225,-7.748435,-8.289218,-9.522746,-9.146753,-6.770635
0,548,-10.1265,-23.64711,-7.46248,-17.00028,-14.3604,-25.44117,-19.35687,-32.56853,-15.93286,-11.41622,-23.69642,-8.364601,-7.587292,-4.71067,-0.1951203,-0.1088557,-0.7264722,-2.091163,0.831207
0,549,-16.09933,-28.85566,-12.27754,-22.36865,-19.81032,-30.43757,-25.623,-37.50797,-20.35481,-15.26784,-28.65154,-12.43421,-10.45475,-9.932007,-5.63055,-4.314985,-3.794429,-7.269256,-3.683122
0,550,-8.455031,-21.081,-5.038732,-14.63341,-12.13356,-22.72886,-16.6783,-29.49039,-13.00874,-8.206847,-20.9105,-5.388201,-3.490847,-3.169564,0.5281163,1.57485,1.754418,-1.422375,2.044125
0,551,-6.549034,-19.28364,-3.133959,-12.62173,-10.33619,-21.49398,-13.96439,-28.0837,-12.783,-9.008408,-19.3919,-5.981791,-5.676886,-2.870589,0.256898,-0.2057937,-0.5909287,-0.5516775,1.60527
0,552,-8.199995,-20.91977,-5.004292,-14.35382,-11.87834,-23.38388,-16.20577,-30.4189,-14.51945,-11.19563,-20.25626,-8.266504,-8.662021,-4.845867,-1.632365,-1.585689,-1.384894,-1.258708,0.7981555
0,553,-14.7061,-27.76727,-11.71356,-21.50209,-19.17948,-29.77142,-23.2061,-36.793,-20.74024,-16.72559,-26.89307,-14.22176,-13.8637,-10.39207,-7.467156,-4.329013,-2.297206,-6.092459,-2.482235
0,554,-7.614167,-21.39637,-4.801463,-14.79703,-12.34426,-23.73334,-15.7608,-30.31507,-15.42309,-11.88175,-20.81427,-9.247039,-9.521981,-4.758438,-2.643965,-0.7381208,1.523502,1.487896,3.355103
0,555,-8.208508,-20.78687,-4.654139,-14.5221,-12.46218,-23.49078,-16.11924,-30.22987,-15.44143,-12.8808,-19.80217,-9.884824,-11.51413,-4.730223,-4.199407,-3.262719,-1.469651,0.6779765,1.502314
0,556,-9.995068,-22.74144,-6.549508,-16.46442,-14.08451,-25.01738,-17.99619,-31.1534,-17.02227,-13.63539,-22.14974,-11.01441,-11.15675,-6.623509,-6.029173,-3.876878,-0.9661351,-0.4812652,0.8644407
0,557,-4.593497,-16.26152,-1.11909,-10.32251,-7.648358,-18.49276,-11.93036,-24.007,-10.8658,-7.766184,-15.50867,-5.173281,-5.072631,-1.137134,-2.718738,-0.3302229,3.157388,4.477046,5.118577
0,558,-12.52688,-24.98304,-8.727506,-18.95507,-16.78296,-27.14149,-19.23467,-33.0826,-18.73189,-15.24809,-23.82585,-12.47182,-12.13473,-7.845435,-10.89213,-6.827753,-2.396187,-3.54759,-1.811444
0,559,-5.440692,-18.01422,-1.556293,-11.8415,-9.154826,-19.90359,-12.14895,-25.26484,-11.65229,-7.467519,-17.31952,-5.016103,-3.473148,-0.8189402,-4.996225,1.295496,7.169085,3.802444,6.324235
0,560,0.6727654,-11.79752,3.624754,-5.805955,-2.582163,-13.47647,-5.942703,-18.52732,-5.179749,-0.8925092,-10.85787,1.41642,3.56515,5.067246,0.7393389,6.899719,12.85016,9.897396,12.08227
0,561,1.724223,-10.1898,4.021122,-4.501497,-0.7315691,-11.71126,-4.911178,-16.49362,-3.288118,0.9701265,-8.743891,3.105403,5.835627,5.967319,1.34965,7.348284,13.62888,11.13495,12.86085
0,562,-8.30481,-20.25462,-6.44186,-14.69053,-11.12958,-21.7502,-14.34841,-26.6706,-13.35898,-9.270325,-18.73807,-7.0147,-4.711994,-3.595105,-8.754323,-2.559803,3.457975,-0.00407539,2.25204
0,563,-18.77474,-31.18246,-15.89664,-25.3606,-21.85178,-32.6422,-24.84316,-37.93292,-23.16527,-18.43987,-29.32408,-15.96399,-12.91293,-12.38293,-19.70461,-11.50899,-3.941173,-9.881701,-6.671238
0,564,-27.33889,-40.50463,-24.52701,-34.71996,-31.46807,-41.23338,-33.56073,-46.66861,-30.70727,-24.3617,-38.47545,-22.6149,-17.06001,-20.96019,-25.23748,-14.78801,-6.118323,-17.91327,-12.13898
0,565,-23.12247,-36.457,-19.06847,-30.51976,-27.55088,-36.78949,-29.94976,-42.74342,-24.8971,-17.21738,-34.36383,-15.67851,-8.330573,-15.34942,-18.40122,-5.726575,3.533085,-13.14099,-5.143085
0,566,-26.68568,-40.14641,-21.84986,-33.91529,-31.06362,-40.18788,-33.91418,-45.54193,-29.05667,-20.6909,-39.79477,-19.0321,-11.38291,-17.67814,-21.65884,-7.947645,1.336538,-16.64712,-7.921959
0,567,-25.20681,-38.98656,-20.70953,-32.72902,-29.42532,-39.00666,-33.24153,-44.72537,-27.40868,-18.864,-38.17944,-17.29921,-9.562209,-15.68162,-19.99158,-4.774053,5.317336,-14.1612,-4.813692
0,568,-12.01134,-25.3266,-9.248857,-19.65816,-16.10913,-25.53558,-19.67914,-31.44966,-13.78161,-6.49586,-23.20804,-4.48982,2.029027,-2.593535,-7.249616,4.37646,12.63686,-1.022889,5.649378
0,569,-6.127489,-18.29492,-3.866987,-12.90705,-9.210443,-18.77948,-13.34884,-24.21293,-8.323763,-2.158714,-16.5729,-0.008720394,5.063403,2.472116,-2.772814,7.010834,13.9205,3.49505,8.789031
0,570,-3.467367,-14.338,0.9353762,-8.996737,-6.400141,-15.42882,-9.495184,-20.93134,-5.598588,-0.4304062,-12.8018,2.103678,5.615365,5.21887,-2.068915,7.464257,14.06759,4.653321,9.545996
0,571,-8.835535,-18.89007,-3.530907,-13.61841,-11.88983,-20.32974,-13.43452,-26.00786,-11.30145,-6.787377,-17.75925,-4.234023,-2.119447,-0.3128391,-8.712955,2.503216,8.910223,-3.659503,2.910932
0,572,-20.91589,-31.26625,-15.0012,-26.12257,-25.13143,-32.28539,-26.56447,-38.55476,-22.66064,-17.32041,-30.38216,-14.83013,-12.33115,-10.44264,-17.1954,-4.544214,1.807517,-14.53073,-6.070499
0,573,-14.20759,-24.98809,-8.240638,-19.74718,-18.9276,-25.93703,-20.93006,-32.30879,-16.43276,-10.8948,-24.44284,-8.530116,-6.022582,-4.233551,-8.404869,3.145735,8.776259,-6.298519,1.748152
0,574,-23.42554,-35.11866,-17.50204,-29.6596,-28.80386,-36.16236,-30.57093,-43.1029,-25.44824,-19.68691,-33.60378,-17.24193,-14.14108,-13.8576,-16.45391,-6.513908,-0.7391832,-14.16704,-6.938375
0,575,-32.15292,-45.07686,-26.00673,-39.18368,-38.46112,-45.89417,-40.33591,-53.29403,-34.42657,-27.71824,-43.95417,-25.2864,-21.37603,-22.10569,-22.30134,-12.45216,-6.943327,-21.81287,-13.69724
0,576,-20.83381,-33.4644,-14.89,-27.49268,-26.48207,-34.60098,-29.82258,-42.00389,-23.66078,-17.64145,-32.55394,-15.04638,-12.14511,-11.71363,-10.59395,-3.312664,0.6997727,-10.01942,-3.607536
0,577,-10.87028,-23.45966,-6.322939,-17.56365,-15.99491,-24.95396,-20.08933,-32.24652,-14.25832,-9.407283,-22.0844,-6.28943,-4.54736,-2.893006,-0.9351339,0.8692281,2.50772,0.3132677,2.940445
0,578,-8.002374,-19.85786,-1.984403,-13.96025,-13.41557,-21.74702,-17.10203,-28.40571,-12.4949,-8.556744,-19.46495,-5.162912,-4.731679,-1.368193,1.725974,-0.5179353,-0.3765566,3.950424,3.703638
0,579,-20.44426,-32.33547,-13.46044,-26.3188,-26.30867,-34.33729,-29.83355,-41.22137,-25.17686,-21.08109,-32.02468,-18.05558,-17.57185,-14.78812,-9.662968,-11.28163,-10.52787,-8.028847,-7.408904
0,580,-26.62303,-39.24773,-20.25794,-33.19294,-32.94461,-41.02219,-36.39648,-48.14455,-31.2499,-26.76834,-38.79594,-23.46837,-22.76809,-19.33118,-15.35984,-16.41059,-15.43556,-13.55157,-12.64755
0,581,-24.10292,-36.83955,-16.41516,-30.38597,-30.03542,-38.59799,-34.67107,-46.47321,-27.11932,-21.90693,-36.22452,-18.02533,-16.45734,-14.44346,-11.03751,-12.42385,-12.04926,-10.71464,-9.451783
0,582,-18.81608,-32.63061,-11.80605,-26.01908,-25.38523,-33.95793,-29.41437,-41.23293,-22.56313,-16.43993,-32.3226,-13.07116,-9.917058,-10.28634,-5.722936,-6.216127,-4.687389,-4.273562,-2.777063
0,583,-10.3273,-23.77454,-2.958805,-17.40069,-17.30552,-25.08898,-20.38909,-31.9092,-14.47207,-8.636618,-23.7631,-5.317749,-2.553348,-2.037352,1.794827,1.413802,3.114222,4.448493,5.437274
0,584,-1.400796,-15.37106,5.663846,-8.623297,-7.774913,-16.92674,-12.32938,-24.41409,-5.092292,0.720193,-14.69679,4.487195,7.333602,7.308153,11.45064,9.184276,9.902997,13.86497,13.77864
0,585,-0.2129314,-13.80514,6.067545,-7.084604,-5.742089,-15.58914,-11.50564,-22.89612,-4.540043,0.5970336,-13.32004,4.295236,6.264316,7.198531,12.36537,8.519446,8.311275,14.671,13.60972
0,586,-1.692447,-14.91159,4.69535,-8.783436,-8.35028,-16.70096,-12.43345,-24.07583,-6.008624,-1.445985,-13.80108,2.225048,3.260498,6.20194,10.28255,7.23659,7.690676,13.9922,12.79337
0,587,0.4300039,-12.63822,7.198128,-6.682769,-7.166121,-14.71051,-9.441415,-22.13027,-4.651516,-0.781177,-11.36575,2.806852,2.796921,7.099798,11.83357,8.234413,8.457745,15.6831,14.13263
0,588,4.617205,-8.260175,11.24205,-2.254329,-2.915566,-10.58379,-4.206416,-17.04067,-2.216202,0.8500108,-7.971569,4.577005,3.460255,9.877782,13.29742,8.120671,7.886859,18.96191,15.67852
0,589,3.618228,-8.702119,9.652508,-2.865975,-3.367075,-11.31787,-4.812376,-17.16106,-4.360584,-2.439405,-8.950466,1.692417,-1.182357,8.766356,9.866448,2.982069,2.027766,17.47769,12.21893
0,590,-1.842076,-14.37395,3.921875,-8.314265,-7.732525,-16.86599,-11.37379,-23.24235,-8.554483,-5.849758,-13.83448,-2.044402,-3.467215,3.479589,5.457743,0.2467082,0.3905007,12.5665,8.656126
0,591,5.052292,-8.271992,10.66158,-1.737171,-0.8012514,-10.66483,-4.76139,-17.02532,-2.312553,1.052181,-8.401036,4.632558,3.921846,9.675611,13.0225,8.678791,8.748418,18.9565,16.14311
0,592,4.359159,-8.463658,10.38654,-1.950492,-1.173244,-11.36032,-4.881471,-18.43803,-2.638959,0.003804103,-7.689494,3.654884,1.93966,8.614049,11.3571,7.70864,7.861447,16.85391,14.66373
0,593,-3.068146,-15.61709,3.130179,-9.33259,-8.60624,-18.09917,-13.16459,-25.09888,-9.199819,-5.921431,-14.99242,-2.561016,-3.378471,1.898803,5.920527,2.971324,3.48414,10.6398,9.183892
0,594,-2.6836,-15.12316,4.346127,-9.102436,-9.357336,-17.34582,-12.24067,-24.39515,-8.243269,-4.508816,-14.33307,-1.479026,-1.596025,2.356589,7.36305,5.744864,6.906657,11.30032,11.00786
0,595,-7.935388,-20.8999,-0.94965,-14.49419,-14.33982,-22.91725,-18.08911,-30.21686,-13.27119,-8.823661,-20.80934,-5.485012,-5.148494,-1.191438,3.373796,2.411299,3.022586,5.430195,6.288204
0,596,1.110233,-12.82366,8.116667,-5.634777,-4.635262,-15.35255,-9.78521,-23.66038,-4.584149,-0.09707592,-12.27744,3.488814,3.563801,7.560834,12.38011,11.82166,12.18872,13.90949,15.37438
0,597,2.405472,-10.26925,10.37628,-3.495295,-3.127715,-12.98428,-7.938311,-21.0364,-2.779474,0.9883615,-9.592138,4.715132,3.992059,9.079417,12.5545,11.36011,11.69583,15.21481,15.69581
0,598,-0.194933,-12.40149,7.70189,-5.690875,-5.025978,-14.99001,-10.3079,-22.01396,-5.670212,-1.912025,-12.32812,1.621692,1.489007,5.328485,8.777187,6.213012,6.782294,12.91315,11.95933
0,599,-12.51398,-24.215,-3.0491,-17.48547,-17.36687,-26.76651,-22.27149,-33.56804,-17.56568,-13.43899,-24.45379,-10.11714,-9.693771,-6.791545,-4.037866,-4.874066,-2.908685,0.6328139,0.6649892
0,600,-4.129495,-14.22799,6.504272,-7.724336,-7.570263,-16.86597,-13.78828,-23.53943,-7.665964,-3.65151,-14.29945,-0.5514328,0.2701721,1.415826,3.97932,3.794933,5.979989,8.36944,8.752518
0,601,2.704398,-8.203267,11.61541,-1.480879,-0.4356768,-11.0328,-6.172005,-17.25648,-2.120873,1.281604,-8.231681,4.93285,5.131186,7.935211,7.867343,5.553369,7.125435,14.42906,12.56009
0,602,-1.010596,-12.27695,6.835997,-5.794612,-4.342359,-14.93028,-8.730574,-20.80447,-5.680305,-2.233914,-11.41168,1.375913,2.235752,4.447519,1.438884,0.4825165,3.786087,10.61284,8.536537
0,603,-3.934594,-14.5752,3.731318,-8.494585,-6.963527,-17.19945,-11.1117,-23.167,-7.569567,-4.329605,-12.76064,-0.807894,0.1860776,2.010341,-2.612146,-2.294607,1.999474,7.444778,5.717752
0,604,1.867037,-6.803608,10.56282,-1.560646,-1.044791,-9.135426,-3.498016,-13.91168,-0.8698702,1.95458,-5.613692,5.538058,6.304094,9.096727,0.6512094,2.07037,6.896729,12.19274,10.16863
0,605,-0.1379717,-8.004156,10.51622,-2.539616,-2.241567,-10.55365,-5.606377,-14.92951,-2.71562,0.05710803,-7.616102,3.9331,4.524945,7.880456,-2.750249,-1.176996,4.183685,10.51812,7.901702
0,606,0.856288,-6.855796,9.523228,-1.682013,-0.7034465,-9.422199,-3.465499,-13.26864,-2.43056,-0.3642813,-6.266489,3.440305,3.38067,7.99535,-4.436273,-2.74028,2.645277,9.725657,6.685229
0,607,-2.510419,-9.773858,6.040869,-4.957338,-4.084476,-12.38998,-6.217887,-16.35286,-4.985762,-3.425707,-8.461781,0.9489603,0.2792785,6.542158,-9.251875,-7.871772,-2.400969,6.27099,2.322337
0,608,-3.568617,-10.58541,4.763165,-5.947897,-5.004608,-13.12629,-5.598661,-16.7981,-5.75917,-4.03274,-8.67813,-0.2436659,-0.07088493,4.394732,-12.9234,-8.134193,-0.5473783,3.427146,1.297518
0,609,-3.439632,-9.303804,6.251224,-4.657385,-3.895058,-11.88009,-5.563904,-15.51055,-4.711243,-2.767498,-7.834132,0.6710222,1.266052,4.126301,-12.14455,-6.161697,1.547958,2.598374,1.823166
0,610,-14.45729,-20.39128,-3.773156,-15.67905,-14.90119,-22.31833,-16.94002,-25.74481,-14.07648,-10.56187,-19.17145,-7.307132,-4.24,-5.145385,-21.62624,-13.76664,-4.69127,-7.484145,-6.790564
0,611,-18.87712,-25.73674,-9.414129,-21.28856,-20.59381,-26.97615,-20.51516,-30.21188,-17.91334,-13.44091,-24.02082,-10.38264,-5.573153,-8.856575,-25.35849,-16.5724,-6.763498,-11.82292,-10.30998
0,612,-9.862851,-15.15594,-1.762992,-11.1433,-9.840949,-16.55341,-10.44076,-18.50879,-9.500732,-6.369469,-14.15812,-3.233165,0.3796632,-1.526207,-19.06089,-13.42647,-5.360061,-4.974244,-5.972089
0,613,-10.86685,-15.40157,-3.208423,-11.80097,-10.96409,-17.08002,-9.137813,-18.369,-10.75073,-8.917898,-14.05265,-5.176137,-2.717534,-2.858699,-23.4246,-21.04631,-13.9741,-7.857798,-11.63398
0,614,-9.715137,-14.87735,-0.8815752,-10.80952,-9.893665,-16.40985,-8.497323,-18.47642,-8.555573,-5.468833,-13.31849,-1.892,2.045741,-0.4826186,-20.95037,-15.06096,-6.659958,-6.67878,-7.625557
0,615,-3.541847,-9.358027,6.296764,-4.934087,-3.900342,-10.44148,-4.415354,-13.23296,-1.275647,3.412355,-8.13361,6.713773,12.29413,7.374544,-10.76478,-2.223811,6.673766,1.456071,3.029534
0,616,-2.825998,-8.698364,6.437909,-4.575394,-3.935511,-9.598106,-3.316732,-12.41131,-0.3125973,4.331026,-7.124707,7.568484,13.30976,7.803101,-8.922258,-1.647611,6.511698,2.138369,3.344669
0,617,-2.690112,-7.558524,6.462481,-3.745205,-2.965455,-8.186438,-2.801782,-10.26711,0.2145209,4.966718,-6.594426,7.807971,14.00126,7.57196,-9.327851,-0.9913672,7.460607,1.342059,3.214468
0,618,2.333139,-2.125227,11.72358,1.712501,2.412433,-2.967337,2.482987,-5.041684,5.228376,9.537203,-1.283477,12.62311,18.22706,12.46749,-4.678921,2.355234,9.882856,5.613586,6.748693
0,619,0.5174583,-3.798579,8.950119,-0.249763,0.6871536,-4.661187,0.3019225,-6.705417,2.923729,6.70106,-2.882969,9.804366,14.34468,11.00909,-7.052391,0.4826899,8.074995,4.195659,5.160081
0,620,-1.335489,-5.413913,6.743988,-2.281724,-1.494979,-6.103885,-1.297891,-8.061018,1.471753,5.277838,-3.793893,7.895192,12.8664,8.517275,-9.069984,-0.2383332,8.519137,2.954567,4.422738
0,621,-1.97034,-6.139624,5.676036,-2.913117,-1.994426,-6.890816,-1.405615,-8.971642,0.9452853,4.61736,-4.468984,7.502186,12.36755,7.980178,-9.728609,-2.089618,5.669209,0.9326484,2.166876
0,622,-17.52484,-22.92508,-10.11807,-19.22338,-17.57176,-23.25887,-17.39149,-25.44597,-14.53092,-9.453474,-21.55923,-6.73887,-0.2413456,-6.175161,-25.23163,-13.86076,-4.09059,-14.48066,-10.76205
0,623,-20.93472,-26.21761,-12.45842,-22.60806,-21.31296,-26.119,-21.37774,-28.48765,-16.18491,-10.09681,-24.61473,-7.379847,0.7897346,-8.044069,-26.24483,-14.82562,-4.768434,-16.44671,-12.31385
0,624,-19.0665,-24.65343,-10.64996,-21.06812,-19.98519,-24.14689,-19.2792,-26.35505,-13.99942,-7.174329,-23.39809,-4.613719,4.580851,-5.706638,-23.30374,-11.05833,-0.9585233,-14.79517,-9.663939
0,625,-6.252948,-12.17743,0.4169242,-8.776901,-7.283713,-11.84753,-5.404001,-14.11116,-1.707006,4.269361,-10.19575,7.276772,15.41883,7.288992,-12.7455,-1.427372,7.945823,-3.224009,0.7233109
0,626,-0.8975142,-5.03615,6.089916,-2.449209,-1.975693,-5.14915,1.273041,-7.179101,3.759575,7.932283,-2.539914,11.22513,17.08121,12.24369,-9.334673,-0.1094051,8.20246,1.236953,3.191643
0,627,-6.765866,-10.96247,0.5266227,-8.015028,-7.462342,-11.4309,-4.565003,-13.59157,-3.058795,0.7836164,-9.03863,4.134673,9.064721,5.770726,-15.89744,-6.301396,1.788671,-5.845986,-3.344367
0,628,2.450581,-1.650234,8.901855,1.381066,2.144278,-2.375487,5.236749,-3.95273,4.632973,7.677146,-0.469895,11.08457,14.89723,13.27315,-8.181419,-0.4938902,6.326709,2.027192,3.20689
0,629,8.684793,3.959338,12.9354,6.834853,8.199056,3.309326,11.40128,2.047759,9.240953,11.82465,4.894425,15.05582,17.86894,18.7688,-3.018386,5.308767,12.01501,8.092783,9.214378
0,630,-0.1245483,-5.108334,4.249273,-2.236613,-1.018159,-5.56406,2.312363,-6.865918,0.2540308,3.21938,-4.551836,6.381629,9.206748,11.01371,-11.53461,-1.1225,6.394846,-0.3881118,2.052303
0,631,-8.012908,-12.552,-4.546199,-10.22633,-9.394973,-12.39753,-5.455879,-13.03462,-7.640962,-4.359978,-12.80225,-1.70909,1.506779,2.87218,-17.62185,-6.972344,0.03633975,-8.598503,-5.276392
0,632,-7.807991,-10.81645,-3.518481,-8.898283,-8.547374,-11.05706,-5.357155,-12.12606,-6.374589,-4.141817,-10.51287,-1.198665,0.6202981,3.426011,-16.93403,-8.107224,-2.37963,-8.751388,-6.392908
0,633,-2.278664,-5.168586,2.777149,-3.389557,-3.955341,-5.372861,0.4553976,-6.512998,-0.7916752,1.476923,-4.922318,4.289147,6.110338,8.556817,-10.255,-1.804705,3.544153,-2.971502,-0.4824112
0,634,-0.8477442,-4.779771,1.604106,-3.234558,-3.231656,-4.822327,2.313732,-6.04818,-0.1860942,1.826423,-3.744545,4.542444,6.075381,9.489774,-9.469259,-0.9026033,4.457291,-1.810021,0.5675362
0,635,-4.918141,-9.414024,-2.700023,-7.909363,-7.914185,-9.246044,-2.385135,-10.25772,-4.697455,-2.384537,-8.452157,0.2239923,2.094418,5.551037,-13.10868,-4.520099,1.532247,-3.945467,-2.066185
0,636,-8.918062,-12.64991,-4.931483,-10.95323,-11.36104,-12.81363,-6.952916,-13.62871,-8.769373,-6.770253,-12.31215,-4.018131,-2.59795,1.039145,-16.85504,-10.2071,-4.621523,-7.128673,-6.587048
0,637,-11.91135,-15.28086,-7.423275,-13.8336,-14.7314,-15.38306,-10.17403,-16.15457,-11.53469,-9.572208,-14.84674,-7.021594,-5.616413,-2.130671,-19.10429,-12.46404,-6.596283,-9.135588,-8.673775
0,638,4.304005,1.925478,9.589539,3.229015,1.821224,1.537456,7.285373,1.34676,4.729548,5.81216,2.025089,8.977366,9.529923,14.177,-4.908229,-1.241467,3.183927,6.059077,4.02867
0,639,19.49282,17.90705,23.50862,18.75958,16.96338,17.03499,24.53328,17.84727,18.10168,17.14258,17.72629,20.75322,18.84101,27.33255,6.598595,5.87044,8.169293,19.27574,13.56732
0,640,15.63387,15.66383,19.04683,16.05183,14.47218,14.34712,21.27725,15.49148,14.20998,11.70354,15.71847,15.40069,11.73414,22.23045,0.9055589,-2.056119,-0.879045,13.85234,6.475555
