type,latency,P7,P4,Cz,Pz,P3,P8,O1,O2,FC6,F8,C4,F4,AF4,Fz,C3,F3,AF3,FC5,F7
0,1,-35.5409,-23.81975,-33.12543,-29.81146,-33.50738,-28.12993,-34.1649,-30.00233,-30.04018,-34.90409,-29.01779,-37.19727,-40.62904,-43.6164,-35.05723,-37.13019,-52.57105,-33.11373,-40.93118
0,2,-21.75305,-10.10382,-19.86215,-16.09658,-19.72861,-14.50891,-19.20941,-15.91637,-16.87524,-22.0535,-15.74479,-24.18409,-27.54062,-30.67372,-22.16346,-24.72035,-40.26879,-20.68878,-28.66864
0,3,-21.22588,-9.552124,-17.98783,-14.79087,-18.61101,-14.38758,-19.11351,-15.55354,-16.16056,-25.02444,-14.77042,-24.9563,-28.96811,-32.5204,-20.96822,-25.04469,-40.41128,-20.46331,-28.69701
0,4,-32.20751,-20.80515,-28.85384,-26.05792,-29.83684,-25.52552,-29.93566,-26.76315,-27.26686,-34.93641,-26.12009,-36.06489,-39.47588,-44.81163,-32.33706,-35.4991,-51.6888,-30.65497,-39.25291
0,5,-16.21982,-4.208752,-12.99254,-9.589549,-13.42365,-9.519799,-14.12519,-10.60551,-11.53037,-20.94974,-10.0192,-20.62743,-24.06012,-29.3356,-15.45203,-20.60277,-34.66396,-15.45626,-23.56722
0,6,-8.862861,4.3269,-4.824883,-0.8819815,-5.142729,-2.054232,-6.271994,-2.594022,-4.120112,-19.20452,-2.072197,-16.02151,-20.98452,-25.21929,-7.613433,-15.27904,-28.0956,-10.01564,-18.06099
0,7,-6.201483,8.159268,-1.397676,2.673095,-2.120532,1.028325,-2.126024,0.9162422,-1.311051,-19.0171,1.006651,-15.04291,-20.61914,-25.16624,-5.992109,-14.9053,-26.1858,-8.840877,-17.03848
0,8,-5.236938,10.48576,0.7140278,4.665888,-0.6290765,2.838488,-0.4605672,2.596017,0.8980266,-18.23503,3.054185,-14.17607,-19.88281,-25.97857,-4.73173,-15.90814,-24.79968,-8.880082,-16.91145
0,9,-7.17368,8.831646,-0.4898941,3.59819,-1.766206,0.7383277,-1.896838,0.9681717,-1.636091,-22.4078,1.15588,-17.38617,-23.73072,-29.36589,-5.888813,-20.02701,-28.91682,-12.90976,-21.14449
0,10,-17.98277,-2.26222,-12.57602,-7.55916,-12.56817,-10.08748,-12.51313,-9.837267,-12.08548,-33.8304,-9.991505,-29.11302,-36.09756,-41.37276,-16.37489,-30.18193,-41.61163,-24.25033,-32.81751
0,11,-28.55468,-13.6256,-23.61438,-18.94364,-23.68494,-20.90433,-23.40679,-20.92871,-22.46986,-42.30191,-20.82553,-38.73558,-45.52507,-50.53164,-27.39839,-40.55964,-52.94043,-33.30484,-42.73409
0,12,-31.39247,-17.46157,-26.84219,-22.60886,-27.03986,-24.32815,-25.90198,-24.27082,-26.03818,-43.70121,-24.49666,-41.71379,-48.65384,-52.13739,-31.09673,-44.32321,-55.67565,-35.47856,-45.37827
0,13,-32.33698,-17.99291,-27.0262,-23.50011,-28.31434,-24.57472,-27.45198,-25.0293,-26.31564,-41.74179,-24.77394,-40.59759,-46.36485,-51.97579,-32.44442,-41.79454,-55.06155,-35.00404,-44.2739
0,14,-36.38704,-21.69835,-31.71442,-27.7183,-32.51652,-27.88222,-31.76007,-28.80018,-29.45437,-43.49068,-28.44025,-43.64519,-49.45121,-55.01432,-36.17844,-43.57875,-59.0309,-38.7447,-47.70945
0,15,-35.20529,-21.05244,-31.3824,-27.23969,-31.74126,-26.68566,-29.90824,-27.74668,-27.23228,-40.7681,-27.23279,-41.4889,-47.16777,-52.84368,-35.65956,-44.36963,-57.86883,-37.69267,-46.94807
0,16,-23.3884,-8.818679,-18.65597,-14.82796,-19.60239,-14.79101,-18.22446,-15.75112,-15.72627,-29.74733,-15.11595,-29.96953,-35.8591,-41.4828,-23.67988,-32.74519,-47.33886,-25.96208,-35.64191
0,17,-26.99212,-13.59093,-22.68757,-18.75748,-23.07036,-19.10272,-21.85338,-19.74297,-19.92037,-34.3479,-19.36961,-34.39559,-41.01265,-45.15792,-26.92848,-36.30417,-53.2097,-30.48567,-40.47528
0,18,-30.43927,-15.90062,-26.61898,-22.04245,-26.62631,-22.04766,-25.01779,-22.71244,-23.94983,-37.37165,-22.83383,-37.66047,-43.83654,-47.45406,-30.6484,-40.36748,-54.31834,-33.85142,-43.27527
0,19,-22.03907,-7.722167,-16.90608,-13.18603,-18.01509,-13.70652,-16.15505,-14.18356,-14.69949,-30.45764,-13.84264,-29.66665,-36.26615,-40.88819,-22.92374,-32.22893,-47.29258,-26.09046,-35.7167
0,20,-29.01302,-14.2763,-23.63286,-19.67977,-24.61174,-20.24779,-22.93311,-20.75251,-21.03032,-37.34803,-20.25064,-36.10582,-42.66285,-48.13806,-29.43005,-39.50816,-55.71836,-34.15885,-43.77766
0,21,-32.61225,-19.223,-27.51691,-24.2473,-28.74859,-24.76222,-26.84401,-25.31664,-24.87214,-40.16967,-24.59567,-39.41695,-45.35361,-51.50037,-33.36173,-43.83343,-58.01447,-36.36406,-46.26114
0,22,-30.20071,-17.17553,-25.31899,-22.21571,-26.60283,-22.27254,-24.18462,-22.97489,-21.77999,-36.45087,-22.03939,-36.19767,-42.17928,-47.89557,-31.3704,-41.91568,-54.85766,-33.94727,-43.67039
0,23,-28.80992,-16.56793,-24.79636,-21.46922,-25.40597,-21.40334,-22.60771,-22.04253,-20.86822,-34.8702,-21.55294,-36.15572,-42.87263,-47.0867,-29.83536,-40.94425,-53.73465,-32.39425,-42.47157
0,24,-27.45516,-14.29829,-22.27872,-19.38335,-23.90419,-19.06162,-21.32387,-19.99684,-18.13356,-32.83401,-18.78181,-33.58043,-40.66181,-44.96744,-28.94062,-38.2381,-53.39414,-30.97418,-41.13557
0,25,-26.30931,-11.9779,-20.76412,-17.4966,-22.36159,-16.84402,-20.50493,-18.18934,-15.50589,-31.17834,-16.33122,-31.48218,-39.09958,-42.86396,-26.91709,-36.46329,-51.36049,-30.39408,-39.89342
0,26,-29.3631,-16.25938,-24.94814,-21.30313,-25.61588,-20.9127,-23.23709,-21.80336,-19.62855,-35.70269,-20.64576,-35.74079,-43.18324,-47.25795,-30.27479,-40.03217,-56.20135,-33.76648,-43.80425
0,27,-30.62752,-17.56834,-26.3941,-22.99388,-27.31777,-22.08459,-24.37178,-23.22464,-20.33537,-35.65008,-21.79114,-36.48458,-43.91462,-47.93344,-32.29484,-42.24876,-57.64511,-33.73868,-44.62844
0,28,-27.61636,-15.02184,-23.46611,-20.20166,-24.34748,-19.58191,-22.1198,-20.78944,-16.99021,-34.38224,-18.78833,-34.03653,-41.87172,-45.55292,-28.8189,-39.59878,-53.87132,-29.72467,-40.89724
0,29,-26.94971,-14.79975,-22.36259,-19.38524,-23.40574,-19.03227,-21.66882,-20.24158,-16.09622,-33.70399,-18.02098,-33.49746,-41.83007,-44.96959,-27.46627,-38.37928,-53.49047,-29.75293,-40.58174
0,30,-30.10446,-18.66367,-25.51311,-22.9308,-26.84078,-22.34287,-24.3273,-23.37104,-20.09831,-34.96336,-21.75494,-36.06385,-44.02198,-46.32977,-31.3899,-40.1365,-55.3042,-33.71392,-43.41938
0,31,-25.87328,-12.88513,-21.20289,-17.95676,-22.35685,-17.46521,-19.98595,-18.43277,-16.20853,-31.87136,-17.04841,-31.96481,-39.76394,-42.17558,-27.22466,-36.44622,-51.40637,-29.56869,-39.49137
0,32,-18.30313,-3.675261,-13.26219,-9.375727,-14.42326,-8.587217,-12.00041,-9.719858,-6.368137,-26.54727,-7.673584,-24.46759,-33.59516,-35.2386,-20.06688,-28.65627,-44.09986,-22.97757,-32.60244
0,33,-31.4058,-17.65881,-26.46614,-23.10855,-27.92649,-22.18588,-24.99934,-23.2367,-20.52976,-37.56803,-21.68255,-36.86655,-44.64725,-47.86138,-33.65607,-40.66727,-56.27309,-35.70493,-44.88867
0,34,-40.02991,-28.21288,-36.87152,-33.52757,-37.48101,-31.897,-34.65866,-33.16893,-30.49158,-43.12465,-31.98469,-44.47632,-50.96621,-54.73054,-42.24456,-47.23816,-65.55219,-41.86225,-51.87641
0,35,-35.0128,-23.09526,-31.5174,-28.59579,-32.72472,-26.29578,-30.69709,-28.14589,-24.39364,-35.9432,-26.10419,-37.42243,-43.75418,-47.19375,-37.09235,-39.28786,-58.96838,-35.54324,-44.98745
0,36,-27.12438,-16.21399,-23.27373,-20.80608,-24.78089,-18.98273,-22.70826,-20.46868,-16.55869,-29.64515,-18.24875,-29.49022,-36.24347,-38.3993,-29.59041,-31.65168,-50.69633,-28.7888,-37.55828
0,37,-9.851908,1.923077,-7.192317,-2.99806,-6.815354,-1.743357,-4.731249,-2.795834,0.774197,-16.65586,-1.173496,-14.4387,-21.52592,-24.61629,-11.15232,-17.20808,-33.4597,-13.73472,-22.15329
0,38,-2.570078,10.47784,0.04405025,5.0199,0.8394713,5.912425,3.561878,5.237937,7.763799,-12.14053,6.166209,-9.112514,-16.67983,-19.74137,-4.169885,-11.20773,-25.5282,-7.831357,-15.81522
0,39,-9.361843,3.669175,-5.719773,-1.344005,-5.759158,-1.43521,-3.617811,-1.752405,-0.171724,-21.22646,-0.7529483,-16.5723,-23.9746,-27.3418,-11.19644,-18.48936,-33.77673,-14.06687,-22.83904
0,40,-18.3493,-5.227565,-14.71824,-10.53941,-15.07188,-10.40843,-12.29773,-10.67454,-10.11447,-28.85659,-10.24861,-25.6042,-32.48062,-36.22235,-21.06336,-26.61458,-43.3274,-22.3261,-31.47864
0,41,-7.906592,4.867678,-3.831254,0.0443987,-4.502561,-0.5927823,-1.809922,-0.4378046,-0.5253918,-20.6774,-0.172092,-15.97089,-22.63638,-26.77026,-10.85249,-16.78506,-32.63825,-12.23895,-21.23479
0,42,-7.324382,5.910116,-3.094793,1.201734,-3.404769,0.6032979,-0.5995635,0.7077538,1.930541,-20.86993,1.454917,-14.98245,-22.13216,-26.87353,-9.675948,-17.73701,-31.87906,-13.82772,-22.04895
0,43,-13.20392,0.4584383,-8.419903,-4.388193,-9.1107,-5.117236,-6.752477,-5.158868,-4.83349,-25.23735,-4.681439,-21.44309,-28.87807,-32.58732,-14.83345,-23.06996,-37.21382,-19.2613,-27.48875
0,44,-14.03343,-0.5148386,-8.795971,-5.248073,-9.987164,-6.037596,-7.776627,-6.178306,-5.89563,-24.9175,-5.534462,-21.8555,-29.1428,-32.89272,-15.63691,-24.30994,-38.92295,-19.43044,-28.29846
0,45,-26.6317,-14.24212,-22.47983,-18.91068,-23.12857,-19.08,-21.05482,-19.52305,-18.00089,-35.92255,-18.48346,-32.93112,-39.3365,-43.95279,-28.05481,-36.35341,-50.07675,-30.90056,-39.56744
0,46,-22.03879,-9.701797,-19.34536,-14.89478,-18.89896,-14.55736,-15.90334,-14.84139,-14.19313,-31.06394,-14.75621,-28.95511,-35.04305,-39.73421,-24.12269,-31.16802,-46.17604,-26.30826,-35.15504
0,47,-23.501,-12.0094,-20.08429,-16.56763,-20.57526,-16.90976,-17.46701,-16.74069,-17.84172,-32.62951,-17.27955,-30.71469,-35.7998,-41.22164,-26.40504,-31.37709,-47.94476,-27.23877,-36.10919
0,48,-26.20304,-14.33289,-22.14485,-19.025,-23.17832,-19.18997,-20.64425,-19.44609,-19.72054,-33.71149,-19.4252,-32.56396,-37.23562,-44.18361,-28.40943,-33.3434,-49.70711,-29.27801,-37.96827
0,49,-25.95189,-13.72863,-21.8588,-18.78047,-22.97669,-18.5213,-20.81371,-19.18384,-18.99134,-31.38143,-18.74046,-31.16755,-35.8786,-42.11889,-27.67734,-33.53592,-49.2431,-28.27537,-37.30327
0,50,-25.61928,-14.12451,-21.2282,-18.87284,-23.04303,-18.74256,-20.59661,-19.26488,-19.17327,-31.05449,-18.66778,-30.23168,-34.51404,-40.48949,-28.33804,-33.62179,-48.40443,-27.08741,-36.33555
0,51,-25.33698,-13.47358,-21.13193,-18.38981,-22.69545,-18.13668,-19.89131,-18.55252,-18.69329,-31.5358,-18.21093,-30.48647,-35.31862,-40.57222,-28.44933,-32.71179,-48.65788,-27.49727,-36.55561
0,52,-20.53039,-9.768113,-16.92552,-14.2979,-18.211,-13.66031,-14.58462,-14.02342,-13.63743,-25.92798,-13.95996,-26.15539,-31.53852,-35.7373,-24.12652,-27.13804,-43.13725,-23.21304,-31.70068
0,53,-17.94211,-7.045285,-14.58269,-11.47515,-15.275,-11.20675,-12.3524,-11.46981,-11.31384,-24.34776,-11.3801,-23.32544,-28.21674,-33.30847,-20.55817,-25.30193,-41.02134,-21.22793,-29.6575
0,54,-17.50588,-7.090216,-14.00179,-11.01463,-14.72877,-11.14751,-11.53444,-11.07853,-10.93642,-25.19791,-10.97382,-22.78086,-27.51435,-33.0591,-20.48691,-26.20584,-41.85307,-21.74208,-30.33187
0,55,-17.67106,-7.674345,-13.69162,-11.28614,-14.99979,-11.64667,-12.32213,-11.66046,-11.04122,-26.07413,-11.15262,-23.4996,-28.69501,-33.74895,-20.63998,-25.33609,-41.6451,-20.7662,-29.58675
0,56,-13.08596,-2.039722,-9.36296,-6.333086,-10.42896,-6.436918,-6.355947,-6.193522,-5.873918,-22.77317,-6.106209,-18.99299,-23.91484,-29.78318,-17.33124,-22.21939,-35.57111,-17.66446,-25.64171
0,57,-11.09698,1.790183,-6.238502,-3.081858,-7.857312,-3.536299,-4.081229,-3.331086,-3.691719,-21.76775,-3.092225,-17.79296,-23.96588,-27.60811,-15.03946,-22.05503,-33.37335,-16.2523,-24.3961
0,58,-11.14969,2.022211,-6.494224,-3.210897,-7.992314,-3.270592,-3.548957,-3.259332,-2.731743,-21.22748,-2.889314,-18.25504,-24.94305,-28.7586,-15.34223,-23.58389,-34.10471,-16.13635,-24.96207
0,59,-19.10064,-6.230328,-14.24922,-11.3346,-16.04287,-11.13936,-11.62238,-11.38028,-9.809013,-27.90036,-10.50653,-25.32965,-31.89027,-36.46071,-23.24392,-31.72784,-42.60116,-23.66914,-32.85035
0,60,-21.72255,-9.10215,-17.95465,-14.44454,-18.86526,-14.05632,-15.03191,-14.30133,-14.17837,-29.51433,-14.08701,-28.05994,-34.60141,-37.00292,-25.31502,-32.71728,-45.63311,-25.42382,-34.83786
0,61,-12.36222,-0.6711429,-8.584846,-5.427022,-9.604524,-5.530664,-5.175749,-5.370653,-5.414689,-21.57456,-5.541523,-19.74924,-25.74125,-29.97096,-16.46715,-23.82004,-36.24917,-16.44313,-25.74652
0,62,-9.143783,3.615136,-3.342262,-0.9732424,-5.791564,-1.933937,-1.378407,-1.596481,-2.016143,-19.76541,-1.578692,-17.45615,-23.66167,-29.04919,-13.30657,-21.85965,-32.51308,-14.11312,-23.14194
0,63,-5.262079,7.467475,0.8442429,3.244522,-1.505015,1.890002,2.481057,2.310848,1.938006,-16.52549,2.353797,-13.9369,-20.23976,-25.94916,-8.530457,-18.15021,-27.86932,-11.3441,-19.63591
0,64,-6.526083,8.007254,-0.08558045,3.057031,-2.209324,1.395414,1.844339,2.007764,-0.008973134,-18.86625,1.473614,-16.26282,-23.2887,-27.21256,-9.516205,-21.11478,-29.177,-13.85059,-22.05766
0,65,-8.742275,4.107448,-2.400351,0.2646154,-4.441202,-2.108686,-0.01517487,-1.025388,-2.815977,-22.65101,-1.663229,-19.53562,-26.81148,-30.60903,-11.87544,-25.73436,-33.12366,-16.66098,-25.58626
0,66,-13.66005,-0.2787375,-7.073636,-4.316228,-9.149459,-6.461394,-5.163834,-5.686703,-6.910031,-26.70196,-6.005374,-24.12582,-31.6674,-35.59012,-16.10371,-29.84921,-37.63696,-21.6795,-30.29688
0,67,-6.852657,7.295881,-0.2217534,2.732924,-2.388844,0.8844202,2.019353,1.539802,0.6516922,-20.07051,1.25003,-17.40583,-24.76578,-30.12229,-9.780226,-22.64648,-30.61157,-14.71194,-23.30665
0,68,-1.33533,12.86051,6.222613,8.642111,3.416927,6.092623,7.9015,6.964674,5.810241,-15.77186,6.76269,-13.27003,-21.73558,-25.27639,-4.244163,-20.00514,-25.79756,-9.445846,-18.80793
0,69,-2.872638,11.57341,4.463603,7.150926,1.862847,4.454211,6.595961,5.522329,3.592566,-18.25271,4.948366,-15.59564,-24.33456,-27.00399,-6.138275,-22.28791,-28.09623,-10.90854,-20.76037
0,70,-4.758607,9.792082,2.658546,5.599585,0.2324223,2.367899,4.880151,3.81938,1.25876,-22.36945,3.069295,-17.75977,-26.29212,-29.35634,-8.134361,-24.75792,-30.62956,-13.78351,-23.4578
0,71,-12.85274,2.219693,-4.675904,-1.867386,-7.400431,-5.196622,-3.038854,-3.840271,-6.750985,-28.75924,-4.666381,-25.1002,-33.11603,-37.47547,-15.37568,-32.36528,-38.61917,-23.1498,-32.06099
0,72,-17.87471,-3.401694,-9.124848,-7.030103,-12.48473,-10.153,-8.676796,-9.117537,-11.15397,-31.90953,-9.392392,-29.14099,-37.27715,-41.4543,-20.01033,-35.36553,-43.23803,-27.73706,-36.26715
0,73,-18.12017,-3.208798,-9.893367,-7.537786,-13.12709,-10.2392,-9.045423,-9.321612,-11.66414,-31.76712,-9.730414,-29.05241,-36.7032,-41.12678,-20.9414,-35.31434,-43.15905,-26.64781,-35.63905
0,74,-17.80999,-2.677982,-9.071119,-7.112562,-12.87657,-9.800079,-8.871098,-8.970486,-11.87932,-30.46361,-9.490829,-28.98376,-36.95942,-40.16461,-20.74921,-34.23542,-42.23549,-25.74515,-34.71964
0,75,-8.242806,4.893946,-0.636525,1.278345,-3.683142,-1.529001,0.5455088,-0.44426,-2.979351,-21.57909,-1.237484,-20.36221,-28.59952,-30.9491,-11.18127,-24.83333,-33.18608,-15.95578,-25.22055
0,76,-11.42568,0.8172643,-4.506857,-2.734263,-7.458368,-5.256187,-2.198251,-4.055778,-5.561614,-25.67923,-4.651618,-23.47868,-31.62371,-34.29695,-15.76936,-29.47063,-36.36753,-18.44308,-28.28095
0,77,-17.75872,-5.128685,-11.3569,-9.359983,-14.15988,-10.99649,-8.270308,-10.1448,-11.14201,-30.00128,-10.78175,-29.23342,-37.27806,-40.20465,-22.62477,-34.84944,-41.98977,-24.12594,-33.89747
0,78,-17.59431,-4.945936,-11.58025,-9.417079,-14.12739,-10.68994,-8.830873,-10.12043,-11.24356,-28.36757,-10.6159,-28.54654,-37.17394,-37.64687,-22.00856,-34.07333,-42.41318,-22.95949,-33.28461
0,79,-4.243504,9.185724,1.96848,4.386109,-0.5212293,2.723788,4.436347,3.2869,2.697459,-17.44128,3.222576,-16.02897,-24.96479,-25.89522,-8.287514,-23.04181,-28.35276,-9.308073,-20.04006
0,80,-4.379402,8.783907,1.326439,4.215148,-0.4917255,1.989383,4.738443,3.117544,0.5162813,-18.59142,1.888544,-17.28319,-25.52942,-27.22058,-8.378095,-23.31241,-30.24008,-10.4392,-21.30953
0,81,-8.135426,4.153512,-2.83525,0.06148568,-4.25784,-2.35915,0.8920155,-1.06326,-3.960948,-22.21231,-2.59141,-21.27907,-29.34614,-30.94111,-11.7486,-27.07044,-34.41277,-14.54507,-25.35303
0,82,-24.64849,-11.52762,-18.99012,-16.49491,-21.17522,-18.03586,-15.43878,-17.24891,-20.07914,-34.55536,-18.74741,-35.84958,-42.30647,-46.97617,-28.93336,-42.52927,-50.73603,-29.61974,-40.7621
0,83,-28.30979,-17.29678,-23.45182,-21.74574,-25.78344,-22.5345,-19.89864,-22.07257,-23.16849,-35.904,-22.89787,-37.632,-43.57856,-47.66972,-33.20526,-45.05183,-52.10163,-31.50811,-42.33015
0,84,-25.29501,-13.79278,-19.47542,-18.39034,-22.79662,-19.24956,-18.50335,-19.22417,-20.0221,-32.43464,-19.04957,-33.35081,-39.39113,-42.52629,-29.75048,-40.40152,-49.1699,-26.22696,-37.73158
0,85,-19.62864,-8.199119,-14.19458,-12.64166,-16.80051,-13.2346,-12.92857,-13.45212,-13.16091,-26.23013,-12.92642,-27.57594,-34.66685,-36.26402,-22.87089,-34.98341,-43.28733,-21.73317,-32.71232
0,86,-14.99379,-5.279339,-10.50957,-9.104677,-12.62612,-10.1755,-8.045287,-9.798937,-10.97972,-22.37434,-10.40631,-24.57042,-31.01598,-32.84912,-18.89356,-30.69683,-39.74882,-16.56963,-28.21952
0,87,-12.98231,-1.220824,-8.835317,-6.346071,-10.42943,-7.151972,-6.579957,-7.014304,-8.799593,-21.56303,-7.543269,-22.34015,-28.79387,-29.9758,-16.46414,-28.13301,-35.81785,-13.98132,-25.22292
0,88,-10.88426,0.5583758,-6.189458,-4.051097,-8.174359,-5.386112,-3.931064,-4.89109,-6.884381,-21.01555,-5.578913,-21.09565,-27.69013,-29.39323,-14.82803,-26.59622,-34.29921,-12.78767,-23.92228
0,89,-12.50472,-1.457493,-7.113147,-5.567398,-9.692615,-7.234224,-5.21984,-6.61367,-8.333419,-22.86482,-7.119581,-22.98617,-29.94022,-31.54051,-16.70315,-29.30831,-36.94207,-14.78573,-26.29128
0,90,-12.48677,-0.6025493,-7.486406,-5.474312,-9.87321,-6.346157,-4.973742,-5.994065,-7.431709,-21.66461,-6.424319,-21.89024,-28.78932,-30.23652,-17.28152,-28.4163,-36.61375,-14.66012,-25.95691
0,91,-9.431804,1.289112,-5.029061,-2.956584,-6.762409,-3.864253,-2.212432,-3.540902,-4.449386,-17.98137,-3.943642,-19.19561,-26.75411,-26.83583,-13.25732,-25.76794,-34.61901,-11.92069,-23.49958
0,92,-15.20742,-4.995127,-10.51428,-8.942451,-12.65481,-9.700499,-8.259848,-9.556529,-9.957163,-22.51698,-9.756982,-24.72237,-32.32356,-32.62136,-18.93739,-30.04407,-40.27394,-17.25562,-28.69796
0,93,-9.117558,0.4882565,-3.935079,-2.816466,-6.422893,-4.262816,-2.252578,-3.824747,-4.371901,-17.9501,-3.926646,-19.07776,-26.65871,-26.95042,-12.76353,-25.03417,-34.03648,-11.50174,-22.89926
0,94,-11.28284,-0.5206971,-6.003553,-4.401035,-8.426898,-6.009973,-4.354853,-5.511316,-6.234859,-22.38053,-5.517572,-21.85366,-29.5957,-30.54002,-15.2779,-27.67936,-37.41756,-13.31646,-25.42783
0,95,-16.34577,-5.301368,-11.6817,-9.802351,-13.73847,-10.77853,-9.301143,-10.66138,-10.41395,-26.15838,-10.50595,-27.02095,-34.90798,-36.28422,-20.26254,-33.56069,-42.12815,-17.37953,-30.07572
0,96,-16.97695,-6.230626,-12.25264,-10.37022,-14.159,-11.63349,-9.634318,-11.29096,-11.75621,-26.67616,-11.57849,-28.08406,-36.04372,-36.76498,-20.50837,-34.4276,-42.07735,-19.22893,-31.1912
0,97,-17.59583,-6.701127,-11.77308,-10.58165,-14.52128,-11.77862,-10.26462,-11.79507,-10.79676,-26.01448,-11.26413,-28.00867,-36.30574,-37.69767,-20.57946,-35.26699,-41.83356,-20.18701,-31.73897
0,98,-13.93813,-1.904095,-7.261402,-6.200531,-10.53532,-7.621432,-6.56686,-7.750137,-7.56032,-21.46667,-7.317105,-24.40972,-32.3931,-34.69349,-16.48174,-32.26719,-38.9201,-16.28583,-28.35602
0,99,-15.18257,-1.851079,-8.375649,-6.856838,-11.59795,-8.130832,-7.611211,-8.36192,-8.470753,-22.9896,-8.021862,-25.61658,-33.29099,-36.62732,-17.67402,-33.22643,-39.06723,-17.75377,-29.34932
0,100,-17.43977,-4.79409,-10.80435,-9.330261,-13.86322,-10.65948,-9.253176,-10.64684,-10.62218,-25.47109,-10.5252,-27.95541,-35.61474,-39.3347,-20.33922,-35.8288,-42.28974,-21.13583,-32.56742
0,101,-22.06894,-10.55563,-15.95696,-14.61392,-18.66082,-15.53146,-14.12193,-15.76211,-14.26377,-28.73066,-15.21376,-31.94733,-39.93486,-43.31873,-24.51373,-40.07944,-47.08684,-25.80917,-37.15705
0,102,-22.48692,-11.95982,-16.4437,-15.66367,-19.37612,-16.47137,-14.87749,-16.78647,-15.60845,-26.67005,-16.43521,-31.77128,-39.10965,-42.78439,-24.81342,-39.80539,-48.09711,-25.35086,-37.09224
0,103,-11.7272,1.124149,-5.904235,-4.006645,-8.364689,-4.425681,-3.723032,-4.909055,-4.549251,-16.67999,-4.815958,-21.8944,-30.4302,-31.67316,-14.13942,-29.89243,-37.05982,-14.63495,-26.64789
0,104,-24.66877,-13.90153,-19.40225,-18.18509,-21.8925,-18.80758,-17.03375,-19.12295,-17.89434,-30.45734,-18.90338,-35.52853,-43.85659,-45.66437,-27.60983,-42.86122,-50.13823,-26.18213,-38.83611
0,105,-27.88982,-19.03672,-22.71491,-22.42973,-25.6157,-23.21928,-20.62197,-23.36796,-22.21951,-32.53949,-23.26728,-38.24962,-45.70503,-47.98486,-31.24329,-45.35025,-52.82727,-28.59179,-41.1675
0,106,-21.04257,-11.83788,-15.83813,-15.38134,-18.63963,-16.37253,-13.83515,-16.50665,-15.29868,-26.90877,-16.26934,-32.20516,-40.36602,-41.61792,-24.23371,-39.79101,-46.61608,-21.45755,-34.6968
0,107,-25.00118,-15.12546,-19.64219,-19.17202,-22.56575,-19.61845,-18.58363,-20.39402,-17.98796,-28.88809,-19.40815,-34.8283,-42.67176,-44.98952,-27.22847,-42.71494,-49.24406,-24.38503,-37.42859
0,108,-27.0908,-16.49146,-22.43193,-21.18593,-24.59718,-21.12925,-20.26991,-22.0473,-20.02353,-29.56695,-21.52693,-36.76965,-44.35288,-47.27262,-29.04147,-44.76866,-52.11375,-26.88025,-40.03444
0,109,-21.99846,-11.17023,-18.09311,-16.15369,-19.41738,-16.17915,-15.0268,-16.98501,-15.50938,-25.47805,-16.97888,-33.18171,-41.2316,-43.54826,-23.56893,-40.35353,-47.80321,-21.78305,-35.44745
0,110,-18.45313,-7.450771,-13.47037,-11.94777,-15.32628,-13.02083,-10.95969,-13.34702,-13.73936,-22.41769,-14.06055,-30.71033,-38.30493,-41.35788,-19.54175,-38.35273,-44.77721,-19.56501,-33.08866
0,111,-13.35506,-1.608401,-8.42697,-6.283303,-9.812906,-7.791267,-6.088063,-8.029909,-8.386537,-20.25884,-8.553218,-27.06149,-35.85207,-37.61253,-13.87074,-34.30531,-41.26815,-14.5581,-28.8789
0,112,-23.20308,-10.69574,-18.6688,-16.2466,-19.94344,-16.75719,-14.84148,-17.39404,-16.23771,-28.4018,-17.80103,-36.58114,-44.99406,-49.55967,-24.50767,-44.79073,-50.60399,-24.28761,-38.69933
0,113,-20.11154,-8.302607,-15.2554,-13.40762,-17.0422,-13.74555,-11.28244,-14.32501,-12.93492,-24.15423,-14.86288,-33.19792,-41.38714,-46.78478,-22.13664,-40.24942,-47.67635,-21.65881,-35.60437
0,114,-17.77919,-6.833326,-12.87138,-11.2459,-14.5817,-11.90439,-9.0125,-12.31186,-10.90213,-22.08305,-12.81451,-31.09597,-39.94734,-43.5042,-19.43004,-38.62038,-45.67274,-20.09653,-33.91185
0,115,-27.22412,-16.58309,-22.96431,-20.91668,-23.8828,-21.24162,-19.20382,-22.01493,-19.63966,-30.02004,-22.07435,-39.34396,-48.02356,-51.84269,-27.41545,-47.82573,-55.6169,-29.57275,-43.40158
0,116,-19.7656,-9.944373,-14.99501,-13.82746,-16.71704,-14.17753,-11.70397,-14.90566,-12.67039,-21.13058,-15.00795,-31.37275,-39.54734,-43.84551,-20.60036,-39.66417,-48.15222,-21.6322,-35.4797
0,117,-17.4452,-6.944387,-12.26019,-10.97061,-14.13025,-11.78457,-9.137787,-12.33434,-10.27017,-21.10209,-12.3778,-30.13203,-38.77341,-42.99204,-18.37842,-38.78161,-45.98075,-19.54433,-33.68458
0,118,-31.01267,-19.64375,-26.89178,-24.62878,-27.74079,-24.65025,-22.46239,-25.5384,-23.60209,-32.45073,-25.95594,-43.31844,-51.75167,-56.2184,-31.43965,-52.77184,-60.15433,-32.96937,-47.52005
0,119,-29.28415,-17.91932,-24.89068,-22.86648,-26.02851,-22.43805,-21.21284,-23.72521,-20.65008,-29.30922,-23.32146,-40.37309,-49.89024,-51.7208,-29.46488,-50.85405,-58.40335,-30.99415,-45.60295
0,120,-26.11106,-16.69104,-23.20024,-20.90976,-23.21158,-20.64784,-18.16649,-21.6508,-17.71515,-28.07901,-21.32484,-38.4331,-48.4372,-49.52567,-26.29958,-49.06731,-56.57154,-27.48002,-42.95076
0,121,-24.76126,-15.11132,-21.24434,-19.20341,-21.61554,-19.04273,-16.87028,-20.13791,-16.10129,-26.036,-19.61299,-36.56588,-46.48633,-47.60859,-24.40719,-47.68363,-53.59549,-26.81082,-41.39577
0,122,-21.82359,-12.49852,-18.23592,-16.37344,-18.77474,-16.50785,-14.0703,-17.43066,-13.40563,-24.6314,-16.92733,-34.16855,-43.76327,-45.98769,-21.80699,-44.00385,-50.28871,-23.51292,-37.98412
0,123,-19.1644,-10.08503,-15.52746,-13.81958,-16.25503,-14.52171,-10.98528,-14.90935,-12.56003,-23.40515,-15.23427,-32.50869,-41.33727,-44.38991,-20.05926,-41.65289,-47.92556,-20.82652,-35.46167
0,124,-15.49872,-5.683328,-11.76541,-9.632849,-12.23238,-10.36503,-7.169885,-10.81497,-8.373502,-20.16143,-11.1569,-29.13086,-37.9915,-42.24982,-15.85829,-37.66588,-45.18763,-17.81407,-32.42879
0,125,-10.34843,-0.6958375,-6.014329,-4.251873,-6.942343,-5.774693,-2.018723,-5.839595,-4.287111,-17.21233,-6.383303,-25.36273,-34.67722,-37.92152,-10.95689,-33.22649,-40.23424,-12.65537,-27.52336
0,126,-15.78467,-5.819881,-11.68538,-9.527252,-12.28647,-10.77356,-7.750579,-11.01396,-8.923935,-22.95734,-11.34481,-30.62336,-40.23435,-43.52272,-16.07261,-36.81722,-45.59468,-18.26455,-32.68933
0,127,-20.21502,-11.11599,-16.70827,-14.68319,-17.10863,-15.5922,-12.18188,-15.91669,-12.98094,-26.62248,-16.05066,-34.49579,-43.88355,-47.44216,-20.88758,-41.90239,-50.36275,-22.06931,-36.9653
0,128,-23.24566,-15.40837,-20.457,-18.77374,-20.71962,-19.05729,-15.73059,-19.75965,-15.03618,-28.26294,-19.28858,-37.06873,-46.84652,-49.83793,-24.07588,-44.59088,-53.59211,-23.44658,-39.09121
0,129,-31.00153,-24.17735,-28.68043,-27.17426,-28.73419,-27.06286,-24.58795,-28.05622,-22.91439,-34.04848,-27.32852,-43.57024,-53.1797,-55.08102,-31.11315,-49.55732,-60.02968,-30.53096,-45.41375
0,130,-29.94904,-24.5108,-29.98108,-27.86417,-28.65587,-26.86297,-23.77346,-27.83065,-23.99367,-30.22674,-28.33121,-42.39065,-51.18783,-51.40727,-30.52869,-46.87207,-57.40987,-28.09789,-42.78394
0,131,-21.20894,-14.87177,-20.50953,-18.26143,-19.34567,-17.98075,-15.22479,-18.75489,-16.37409,-22.5029,-19.62456,-34.35823,-42.88865,-43.5107,-20.86441,-37.97231,-48.18397,-20.07036,-34.2567
0,132,-6.14046,0.597285,-4.034205,-2.024017,-3.348347,-2.86176,-0.1293371,-3.339887,-0.6815662,-10.07358,-3.629276,-18.94509,-27.14334,-29.56791,-4.652179,-24.54829,-32.26493,-7.393536,-20.38158
0,133,-4.259991,2.843562,-2.100101,0.2153086,-1.306551,-0.8993027,2.89565,-0.959803,1.762761,-10.80464,-1.367937,-17.64351,-26.0555,-28.93595,-3.75633,-24.99272,-30.73292,-7.090958,-19.93621
0,134,-14.13019,-5.982613,-11.39669,-9.095823,-11.08317,-9.769576,-6.915505,-10.14957,-6.96505,-19.87726,-10.10506,-26.93348,-36.26775,-37.55233,-13.88566,-34.26656,-40.55677,-16.94099,-29.73572
0,135,-4.221862,3.433433,-1.889587,0.5609668,-1.229488,-0.559232,3.019448,-0.5827011,2.081111,-11.84882,-0.8325686,-17.72278,-26.74374,-28.30746,-4.165173,-25.34028,-30.78504,-7.081106,-20.05979
0,136,-4.56768,4.230261,-2.18342,1.034289,-0.9922643,-0.5300934,2.93869,-0.35471,1.292234,-13.71214,-1.098831,-18.88483,-27.45235,-30.78889,-3.696803,-25.86248,-31.53021,-8.659853,-21.27104
0,137,-27.2153,-17.83452,-24.92582,-22.00229,-24.24673,-22.32235,-19.93141,-22.8736,-20.47785,-31.87901,-23.21648,-39.47187,-47.467,-51.16573,-26.95362,-47.63216,-53.68402,-29.19013,-42.42829
0,138,-16.77079,-9.576994,-15.07158,-12.77426,-14.36029,-13.19796,-9.6609,-13.37955,-11.90698,-19.94636,-14.40576,-28.24425,-34.79034,-39.18871,-17.05159,-35.5138,-42.58017,-18.69123,-31.22924
0,139,-10.99123,-4.056066,-8.277257,-6.744994,-8.424128,-7.737875,-4.33208,-7.872119,-6.2134,-14.99545,-8.479858,-22.50105,-28.94413,-33.55288,-10.93896,-29.56963,-34.61836,-12.83525,-24.6107
0,140,-20.38731,-11.53347,-17.329,-15.54215,-17.87902,-15.40808,-14.32778,-16.38646,-13.87807,-21.3773,-16.12036,-29.37244,-35.85799,-39.51259,-20.10256,-37.74402,-41.5496,-21.21886,-32.40615
0,141,-22.20936,-14.85254,-19.92656,-18.37868,-20.24074,-17.83813,-16.11634,-18.65927,-16.87757,-20.61455,-18.96217,-29.66184,-35.04234,-38.65638,-22.61939,-38.03751,-43.93206,-23.13955,-34.00691
0,142,-15.11223,-8.521365,-14.28703,-12.05503,-13.45943,-11.06975,-9.319134,-11.84615,-10.36026,-13.00142,-12.65711,-22.15207,-26.9652,-30.31411,-15.31125,-28.94016,-35.21231,-16.27727,-26.06223
0,143,-11.90623,-4.407069,-10.53142,-8.484214,-10.22198,-7.271704,-6.482945,-8.399491,-6.882035,-8.243882,-8.830365,-17.87535,-22.37748,-25.73567,-11.81626,-25.99194,-30.68813,-12.2833,-22.02592
0,144,-19.71006,-12.53112,-17.74469,-16.33555,-18.02561,-15.00271,-14.95545,-16.46311,-14.24795,-14.0529,-16.20556,-24.22991,-28.80849,-31.11055,-19.01235,-33.84912,-37.43181,-19.63913,-29.15969
0,145,-15.23646,-8.327302,-13.48075,-12.09269,-13.74757,-10.62424,-10.96339,-12.12921,-9.837033,-9.584372,-11.82764,-19.09398,-22.87952,-26.41156,-14.61798,-27.16172,-31.6183,-14.75311,-23.5148
0,146,-8.432764,-1.973195,-7.973809,-5.694598,-6.972526,-4.267346,-4.166788,-5.433284,-4.510266,-3.348416,-6.030968,-12.78097,-16.39703,-18.8075,-7.550692,-19.789,-25.48278,-8.698343,-17.21765
0,147,-17.86981,-11.85355,-17.62914,-15.62667,-16.86479,-13.68425,-14.50309,-15.1586,-13.64455,-11.80595,-15.33401,-21.21861,-24.87466,-26.14016,-17.24748,-26.47993,-33.01253,-16.76384,-24.71546
0,148,-27.78221,-24.90199,-28.83737,-27.62218,-27.86933,-25.23882,-24.89422,-26.59578,-24.12099,-20.10399,-26.68997,-29.538,-32.07612,-33.2616,-28.20155,-35.47188,-41.27108,-25.54634,-33.06411
0,149,-20.78295,-18.21427,-22.56438,-21.1271,-21.09769,-18.52686,-18.31678,-19.94584,-18.38653,-11.06872,-20.51061,-21.66263,-22.97606,-24.93213,-20.77597,-28.02121,-34.19501,-17.85352,-25.48561
0,150,-14.38455,-12.5383,-16.10986,-15.06269,-14.88549,-12.46437,-11.9738,-13.81623,-12.0272,-4.497898,-14.30676,-14.88025,-16.01481,-17.70191,-14.64641,-21.06194,-26.03713,-11.62662,-18.43665
0,151,-15.15391,-12.97573,-17.20436,-15.9908,-15.96101,-12.66108,-13.74423,-14.58894,-10.75891,-5.461885,-13.97724,-14.30478,-15.38578,-17.90254,-15.39301,-19.52573,-24.87365,-10.87353,-17.25691
0,152,-7.901482,-4.643804,-9.792248,-8.101814,-8.25815,-4.978973,-6.589065,-6.960025,-4.204788,2.285813,-6.726011,-7.317851,-8.064624,-11.07073,-7.01682,-12.56546,-17.33065,-4.07187,-10.24466
0,153,3.57133,6.625526,2.239815,4.035476,3.979934,5.827916,5.694885,4.617547,5.949201,10.72332,4.100456,2.24755,1.45558,-2.174163,5.108955,-3.17959,-6.648253,4.709137,-0.8999661
0,154,-0.7574754,2.443584,-2.54566,-0.2655139,-0.3877738,1.585076,1.306842,0.4812628,2.222072,4.269619,0.160665,-2.000619,-2.970633,-6.285543,0.4188854,-7.12493,-9.996359,0.003661674,-5.018798
0,155,-10.96036,-8.002177,-13.37527,-11.05993,-11.05445,-8.183243,-9.940742,-9.995616,-5.971113,-4.455708,-9.250053,-10.52147,-11.61482,-14.60319,-9.493553,-15.02264,-17.06936,-8.726423,-12.90364
0,156,-13.1776,-11.03578,-15.4969,-13.74453,-13.60903,-10.93924,-12.36019,-12.60718,-9.046277,-5.783601,-11.93717,-11.46727,-11.3538,-15.05075,-12.26515,-16.89598,-17.9628,-10.62744,-14.28642
0,157,-13.26922,-10.97752,-15.72106,-13.9141,-13.80606,-10.86937,-13.20536,-12.7792,-9.218387,-5.008525,-11.92611,-10.69881,-10.14849,-13.81774,-11.91567,-15.36952,-16.35736,-9.979679,-13.05764
0,158,-16.24022,-14.9799,-18.6612,-17.52917,-17.15301,-14.33572,-16.43345,-16.3123,-12.61968,-6.214608,-15.47693,-12.96777,-11.71294,-15.85644,-15.06832,-17.27543,-17.64183,-12.33699,-14.85569
0,159,-13.40231,-13.20326,-17.18569,-15.68036,-14.70507,-11.75859,-13.51343,-13.92716,-9.246199,-1.421047,-13.17652,-9.371189,-7.695772,-12.65287,-12.10733,-14.20176,-15.5586,-9.386119,-12.10407
0,160,-18.62083,-18.63752,-23.13599,-21.36248,-20.09573,-17.0134,-18.95667,-19.40194,-14.94072,-4.24615,-18.97035,-14.0233,-11.61908,-17.37223,-16.74232,-18.96213,-20.99307,-14.05148,-16.97695
0,161,-15.22483,-15.35901,-20.46343,-18.46252,-17.12137,-13.46817,-14.98991,-15.90471,-10.99333,0.1170747,-15.60957,-9.600544,-6.321864,-13.23533,-14.18561,-15.74372,-15.23836,-10.91134,-12.92113
0,162,-19.13682,-18.88542,-23.84488,-21.92699,-20.78424,-16.75402,-19.31245,-19.5342,-12.96315,-4.111232,-18.27536,-12.53315,-9.529824,-17.18612,-17.54496,-18.61057,-17.98795,-15.2012,-16.40684
0,163,-23.60487,-24.60727,-28.57708,-27.24879,-25.77765,-21.72505,-24.16638,-24.57996,-18.01114,-6.537405,-23.37073,-16.187,-13.04263,-19.34805,-22.47874,-21.51375,-21.68409,-18.82911,-19.80156
0,164,-19.97062,-21.52651,-25.1288,-24.14114,-22.60678,-18.0211,-21.20015,-21.24292,-13.04523,-2.041403,-19.22318,-10.78254,-6.931612,-14.84468,-19.2909,-15.86297,-17.1901,-13.95235,-14.69138
0,165,-21.58304,-23.3639,-27.30284,-26.18774,-24.50437,-19.83897,-23.74974,-23.27744,-14.88449,-3.119828,-21.01349,-11.45098,-6.798393,-15.49341,-20.60892,-16.48982,-18.56166,-14.06119,-15.12899
0,166,-23.60875,-25.19545,-29.53556,-28.41947,-26.78296,-21.67024,-25.79544,-25.2402,-17.31476,-3.303759,-23.24825,-12.47785,-6.766833,-16.30191,-22.77735,-17.59872,-17.96758,-15.82247,-15.91939
0,167,-27.3834,-30.25557,-33.1307,-32.68668,-30.71926,-25.93884,-30.1967,-29.60995,-20.58412,-6.216321,-27.02686,-14.68004,-8.118237,-18.99586,-26.25256,-20.13261,-20.25265,-19.59072,-18.76747
0,168,-25.67705,-29.22218,-33.23397,-31.92915,-29.49522,-24.56608,-29.41465,-28.43247,-18.61969,-4.734143,-25.68245,-12.03336,-4.760026,-16.44601,-24.35652,-16.93054,-18.9522,-16.5683,-16.09419
0,169,-18.33372,-22.59136,-26.58657,-25.19437,-22.46148,-17.59167,-22.67581,-21.58944,-10.72152,2.141342,-18.37603,-4.06319,3.357655,-8.154779,-16.91954,-9.315239,-9.907017,-8.535424,-7.694547
0,170,-11.05444,-16.60332,-19.68258,-18.49516,-15.30482,-11.29573,-14.74185,-14.86287,-3.88751,8.032724,-11.96965,2.016999,9.123512,-1.944396,-10.08585,-4.062035,-2.834834,-2.013544,-1.297865
0,171,-4.24363,-9.209233,-13.09231,-11.33474,-8.166794,-4.157885,-7.948737,-7.81227,3.562274,14.09969,-4.784211,8.69609,15.7563,4.063083,-2.425259,2.151812,4.779984,4.086216,5.261613
0,172,-4.056587,-7.721312,-12.70222,-10.52891,-7.809443,-3.140292,-8.202465,-7.089491,4.767195,13.52117,-3.519827,9.385974,16.27678,4.294164,-2.025903,2.956442,5.116387,4.81293,5.888322
0,173,4.098379,-0.3486499,-4.677449,-2.38898,0.6623949,4.058332,0.3133058,0.7079092,11.89903,18.91473,3.746062,16.08516,23.36453,10.12177,6.535466,9.889832,13.48189,11.49069,13.10896
0,174,5.884444,1.179962,-1.65599,-0.2303377,2.697425,5.487015,2.399062,2.356855,13.72558,19.40707,5.586337,17.01155,24.19992,10.03881,8.252477,10.8233,16.27369,12.73057,14.75763
0,175,-13.37401,-18.8522,-20.4727,-20.00601,-16.93896,-13.79057,-17.17948,-17.36251,-4.583099,3.010977,-13.50454,-0.9715436,6.60044,-8.612824,-11.13286,-7.409071,-2.145812,-5.370662,-3.333808
0,176,-14.33939,-20.59536,-22.34518,-21.63457,-18.15151,-15.17495,-18.10574,-18.64792,-6.671786,3.751009,-15.41824,-1.516045,6.611179,-8.198224,-12.04054,-8.112313,-3.757907,-6.439791,-4.463196
0,177,-11.07618,-17.51431,-19.05171,-18.47439,-15.01244,-11.69842,-15.10235,-15.38544,-2.08751,7.124804,-11.51888,2.97355,11.55736,-4.893599,-8.945858,-3.737566,-0.1240744,-2.998258,-0.6687222
0,178,-15.29446,-21.42734,-24.18696,-23.11669,-19.56437,-15.44612,-19.52859,-19.54465,-5.905165,5.37992,-15.76509,0.02033497,9.552332,-8.084151,-12.93446,-6.652938,-2.289177,-6.566513,-3.574664
0,179,-17.50033,-24.05924,-26.46009,-25.6601,-21.9115,-17.75206,-21.84559,-21.96408,-8.903967,6.035243,-18.44027,-1.239124,8.733603,-8.263725,-14.8803,-8.78973,-4.546354,-8.60469,-5.635131
0,180,-14.47088,-20.81447,-22.69647,-22.26694,-18.62195,-14.32052,-19.44414,-18.88776,-5.095006,10.36163,-14.54472,2.82773,11.92525,-2.993476,-11.01544,-6.361948,-2.0598,-5.401028,-2.778728
0,181,-1.435912,-7.356966,-9.278757,-8.533575,-5.099407,-1.469557,-6.570204,-5.647854,7.993779,18.8919,-1.078116,14.59914,22.95455,8.817051,2.29719,5.870758,11.55339,6.654944,9.734037
0,182,3.303144,-1.723555,-4.179335,-3.019169,-0.00903089,3.886906,-0.4500611,0.1362635,12.95971,22.08923,4.061069,18.87012,27.48485,11.82584,6.174825,11.00531,16.48592,8.884811,13.22417
0,183,1.32013,-3.230784,-5.241127,-4.470812,-1.711838,2.577249,-2.138549,-1.44568,12.62158,21.09994,3.144719,17.90177,26.58632,9.443371,4.450549,8.625072,15.09402,6.095048,10.96454
0,184,-5.960845,-11.05642,-12.61358,-12.08716,-9.053432,-4.868961,-9.870085,-9.142667,5.405402,15.27999,-4.39718,10.49406,18.67885,2.758006,-2.082948,1.915079,8.760484,-0.715365,4.323705
0,185,-2.784023,-8.245446,-10.1542,-9.248169,-6.022195,-1.82195,-6.144708,-5.849959,7.858102,19.17078,-1.82552,14.06661,23.00164,6.547016,0.673396,5.596428,11.97161,1.442765,7.113875
0,186,1.986346,-2.879985,-6.390396,-4.38768,-1.159614,2.780479,-1.575802,-0.9948229,11.91162,21.08037,2.66754,17.92657,26.97943,10.56132,5.624289,9.480104,16.16576,6.369167,11.57788
0,187,2.686043,-1.963793,-5.033936,-3.349232,-0.4622436,3.503162,-0.9405825,-0.07747594,12.59402,20.04506,3.819904,18.7475,27.68462,11.57985,5.476168,10.62097,16.52476,7.17433,12.33911
0,188,6.935804,1.776458,-0.1415487,0.9601434,3.80183,7.407893,3.323375,4.014342,17.19228,22.6121,8.357064,22.73657,30.94622,16.20653,9.232849,14.18199,21.41372,11.14526,16.52687
0,189,2.704711,-3.932762,-4.844196,-3.921437,-0.5838218,2.158877,-1.002766,-0.8913015,12.31026,17.17841,3.216862,18.01688,26.55617,11.36954,4.956259,10.43848,17.55228,6.516289,12.36766
0,190,4.691407,-1.966441,-3.329373,-1.876001,1.702874,3.967113,0.827087,1.045651,13.29008,19.476,4.677815,19.97169,28.85925,13.96637,8.06219,11.94418,19.73444,7.581373,13.86335
0,191,8.646988,2.2754,0.4062161,1.921128,5.361713,8.208193,5.059373,5.103622,18.53002,23.12811,9.139013,24.32935,33.54807,16.81126,11.18427,15.48992,23.59137,12.30956,18.1263
0,192,0.5188581,-6.195723,-7.717701,-6.428442,-2.958252,-0.03797933,-3.497478,-3.304073,11.50086,13.84062,1.466412,16.19188,24.75823,8.632547,2.797164,7.488611,15.83771,5.068839,10.6164
0,193,-20.16494,-26.27253,-27.09481,-27.01018,-24.07222,-19.30342,-25.35532,-23.67173,-7.320501,-0.8538127,-17.54867,-0.5451844,8.471066,-7.522006,-18.04213,-9.166299,-3.024683,-13.46999,-7.401309
0,194,-21.7325,-28.10326,-31.14486,-29.93181,-26.45878,-21.00269,-27.71711,-25.73763,-10.7479,1.639693,-20.68374,-1.157078,9.318572,-6.863654,-19.34759,-8.26225,-5.372595,-12.63489,-7.429672
0,195,-17.23166,-25.14884,-27.39813,-26.54786,-22.42253,-17.12696,-23.11412,-21.96417,-6.851333,9.645306,-17.34484,4.126457,15.50873,-1.484259,-14.74423,-3.086872,-0.4580038,-7.929808,-2.470914
0,196,-4.824926,-11.99723,-14.16421,-13.54313,-9.93464,-4.184647,-10.70262,-8.975041,5.801156,21.37887,-4.156066,17.24873,28.75834,11.83006,-2.998916,10.64159,13.08724,4.144269,10.42137
0,197,-6.864426,-14.89449,-17.42941,-16.12955,-12.01857,-6.654789,-13.26384,-11.43617,4.325633,17.82476,-6.388043,15.07128,26.14162,10.01096,-4.371628,9.084748,11.39404,1.784652,8.446152
0,198,-20.65573,-29.48528,-31.68214,-30.85824,-26.4528,-20.61162,-27.99711,-25.90903,-9.344102,7.50579,-20.42854,3.300396,15.36646,-1.220522,-18.08687,-3.258995,-0.7955755,-9.964868,-3.308041
0,199,-16.55631,-26.19945,-27.86789,-27.41685,-22.86538,-16.46692,-23.37525,-21.83309,-4.732118,13.6948,-16.44082,8.466632,20.78428,4.226324,-15.14016,2.198125,4.007498,-6.059495,1.226039
0,200,-3.462324,-12.6442,-13.4503,-13.36609,-9.236396,-3.296393,-11.26917,-8.576083,8.868695,23.49306,-2.138295,21.63464,32.89233,17.91614,-1.636025,15.20287,15.31323,7.140605,13.82267
0,201,4.32044,-4.987516,-5.463566,-5.244147,-1.14718,3.921083,-2.413221,-0.5594944,14.99344,28.53773,4.850201,27.32258,38.07248,24.16533,5.465316,21.43444,21.38823,13.15886,19.7058
0,202,4.65559,-5.249008,-5.176324,-5.219805,-0.9731699,3.82988,-2.666886,-0.7683843,16.28697,27.06803,5.453419,27.13257,37.00918,23.75798,5.723125,21.22674,20.86813,14.76668,20.31991
0,203,8.78869,-0.5243188,-0.8687766,-0.6250206,3.470124,8.015528,1.747268,3.543694,20.97436,28.58111,9.896208,29.9662,39.41053,25.65953,10.12379,23.91191,26.34677,18.32744,24.22177
0,204,15.70813,7.254985,5.71989,7.036822,10.93121,14.89294,9.829295,11.19049,26.95765,30.96618,16.51143,34.38027,43.15747,30.28799,16.80313,29.28881,33.85355,22.683,29.50706
0,205,19.48277,13.02444,10.39533,12.30805,15.59377,19.62621,14.24714,16.04946,30.65191,33.14505,21.00981,36.30497,43.74312,32.11843,21.31851,31.80567,35.9597,24.95736,31.46985
0,206,15.50148,8.610298,6.247443,8.454889,12.02706,14.88577,11.67667,12.00791,26.04013,26.42251,16.23546,30.22488,37.55624,24.82622,17.31282,23.82829,30.61552,18.75408,25.01427
0,207,7.247724,0.03802136,-1.113312,0.4081816,3.908016,6.096443,4.172671,3.604257,17.34344,16.61061,7.573193,20.34868,27.69063,13.25472,8.433107,14.29279,20.7488,10.22855,15.78036
0,208,7.329728,1.223462,0.06579589,1.457502,4.574424,7.028536,3.852132,4.142558,18.84865,16.84539,9.013126,20.81447,27.24865,13.4086,9.660387,13.70432,20.61718,10.05929,15.49174
0,209,9.693355,4.115828,3.013282,4.423533,7.230105,9.501846,6.851782,6.918955,21.45275,16.29678,11.78743,21.23973,25.90314,14.50707,11.42827,14.56045,21.84758,11.6916,16.62194
0,210,6.050892,0.1488198,-0.1330063,0.6176389,3.426517,5.659255,3.660036,3.010559,18.56785,12.4229,8.185126,16.54798,20.49797,9.046857,7.215127,9.614726,18.22923,8.672483,12.96927
0,211,-0.5727965,-6.07407,-6.291116,-5.464132,-2.698582,-0.6031408,-3.609868,-3.484508,12.21898,6.184124,2.182098,9.872861,12.26158,4.16853,1.940855,2.315323,10.21812,1.794848,5.564218
0,212,-3.522815,-9.717173,-9.638034,-8.937299,-5.901415,-3.982025,-6.551945,-6.811801,8.832741,4.322045,-1.341378,7.804494,11.57857,1.147274,-1.15751,-0.5400984,7.12262,-0.9210032,2.840138
0,213,-7.248343,-13.11243,-13.55747,-12.89408,-10.04423,-7.244462,-9.572369,-10.17385,5.207376,2.723967,-5.121132,4.980691,9.815252,-2.476754,-6.049333,-3.208758,4.087389,-4.441782,-0.327355
0,214,-11.7868,-17.41784,-18.74065,-17.63519,-14.6557,-11.51827,-14.72952,-14.82548,0.8090535,-0.1895645,-9.726474,0.9565465,6.2091,-7.086694,-9.802304,-6.530353,-1.551506,-7.920615,-4.413803
0,215,-13.64559,-18.87179,-20.27851,-19.28858,-16.33531,-12.53727,-17.10164,-16.5027,0.2975639,1.095462,-10.68583,0.3438809,4.690658,-6.625066,-10.45343,-7.982535,-2.442635,-9.714083,-5.866016
0,216,-3.311039,-9.083639,-9.921967,-9.078429,-6.058609,-2.490165,-7.067582,-6.357275,11.14696,9.790529,0.004310612,10.87139,14.46699,4.696278,-0.4955603,1.933291,6.750978,0.7227883,4.109119
0,217,5.803007,0.8374451,0.3565078,1.226436,3.752254,6.377514,2.841554,3.361908,18.83146,14.32004,9.028152,17.90728,21.45424,10.90184,8.182063,9.89547,14.53439,7.955534,11.49833
0,218,6.8856,1.699829,1.305723,2.321351,4.907777,7.181324,4.649012,4.523605,19.7669,13.74339,9.756164,17.92543,21.57309,9.927995,8.823863,10.62304,15.61148,7.987901,11.91005
0,219,8.872032,5.091527,3.066406,5.027431,7.449661,10.04616,6.78068,7.140592,22.12631,16.20572,12.16536,19.0406,21.82269,10.86465,12.12941,11.96814,16.16206,9.32974,12.79697
0,220,10.2545,6.723292,5.743846,7.009252,9.102149,10.83234,7.783256,8.315033,22.32651,14.82553,13.53149,19.90599,23.24877,11.46557,13.42054,11.66354,17.96523,11.18012,14.31593
0,221,6.826808,4.335176,1.142547,3.76089,5.846353,7.944411,4.1175,5.312247,18.53941,11.2473,10.09983,16.17894,19.08367,9.153019,10.86362,8.277016,15.00327,7.497902,10.82333
0,222,-14.80834,-19.72109,-22.03322,-19.74792,-16.76003,-14.75777,-18.27112,-17.56442,-3.761946,-7.156327,-12.87287,-3.842129,-0.06212897,-9.598742,-11.18085,-11.3383,-7.029302,-12.48925,-9.498654
0,223,-22.91141,-29.5372,-30.90441,-29.2699,-25.79255,-23.27295,-26.96451,-26.48981,-10.99929,-12.24515,-21.13346,-9.765323,-5.699315,-14.55576,-20.20132,-18.09005,-15.16756,-18.7842,-16.23492
0,224,-15.83355,-21.77519,-23.16725,-21.90854,-18.82203,-15.43549,-20.42353,-19.02246,-4.0907,-2.509785,-13.50398,-1.435521,2.335287,-4.378099,-13.22479,-8.777931,-7.269827,-10.89366,-8.02648
0,225,-18.73731,-25.26903,-26.83639,-25.60292,-22.22149,-18.22054,-23.85131,-22.31551,-5.68608,-3.223681,-16.18961,-2.620867,1.694037,-5.652206,-15.99857,-10.58996,-7.54703,-12.84794,-9.253701
0,226,-13.46317,-19.27271,-21.93638,-20.04915,-16.81373,-12.46619,-18.84561,-16.68615,-0.05352415,1.621391,-10.45406,2.944222,7.119048,-0.1535563,-10.44441,-4.854839,-3.683847,-7.458653,-4.300414
0,227,-4.189645,-11.52056,-12.76887,-11.29586,-7.591291,-4.364342,-9.488365,-8.118165,8.194024,9.592426,-2.147567,11.49842,15.71784,8.756619,-1.296335,3.498857,4.845199,1.284064,4.327857
0,228,-1.11779,-7.881797,-9.734341,-8.119928,-4.678982,-1.109094,-6.283598,-4.790536,10.89043,12.28451,1.000078,14.76318,19.38089,12.1793,1.035641,6.489527,7.93551,4.839092,7.652631
0,229,6.646295,1.204011,-0.5897312,0.7965349,3.590067,7.019082,1.827178,3.637505,17.75158,18.40457,9.129786,21.5554,26.03291,18.94592,8.651242,13.6298,15.7657,11.95437,14.89821
0,230,11.38147,5.758359,5.082933,6.05111,8.703731,11.61345,7.265859,8.623921,22.63553,21.34472,13.92503,25.38766,30.06747,20.76499,13.12766,19.04958,20.1522,15.01275,18.75144
0,231,9.009562,3.900498,3.750572,4.56821,6.947071,9.064463,5.22787,6.43176,20.56143,15.05525,12.06144,21.18447,24.7767,15.8393,10.97573,13.91351,16.71818,11.74772,14.92704
0,232,8.066819,3.767148,4.124103,4.372894,6.271779,8.121477,4.49445,5.73138,18.49719,13.02934,11.12695,19.08652,22.41645,14.15663,9.75161,11.85783,16.13644,10.97667,13.89754
0,233,12.86671,9.143415,8.759144,9.674059,11.5338,13.21391,9.6593,10.92516,23.79885,16.05067,16.20948,22.58547,24.90174,17.51723,15.21843,15.88835,20.89332,14.42805,17.68848
0,234,6.486477,3.385036,2.766337,3.822577,5.486104,6.931053,3.847709,4.842815,17.26166,8.474919,9.943682,15.22805,17.29627,9.236279,8.773217,7.512655,11.84257,7.611931,9.746607
0,235,-3.905217,-7.029551,-8.234311,-6.99868,-5.173044,-3.022181,-6.12793,-5.366703,6.601444,2.173041,-0.8445597,6.053294,8.80694,0.8903106,-1.542872,-1.897794,3.375711,-3.240367,-0.0565597
0,236,-2.48555,-6.174809,-7.657107,-6.312088,-4.32344,-1.472827,-3.908489,-3.854585,8.791059,4.997879,0.4567485,8.286888,11.38863,2.903439,-1.481331,0.2432253,5.201475,-2.064615,1.524669
0,237,-7.386292,-10.89638,-11.54105,-10.57598,-8.754683,-6.409425,-9.982182,-8.857907,3.568491,-1.088066,-4.031677,2.977043,5.142026,-1.304809,-5.167076,-3.323004,0.6363635,-6.717185,-2.886927
0,238,-14.68948,-18.99498,-19.46712,-18.56133,-16.47059,-13.96394,-17.39971,-16.44643,-4.13108,-7.120402,-11.78495,-4.089557,-2.526561,-6.361323,-12.96892,-9.913328,-6.990467,-13.53106,-9.911699
0,239,-11.04483,-15.23635,-17.44128,-15.21055,-12.79618,-10.26166,-12.95806,-12.51818,-1.039875,-3.512326,-8.863591,-1.162419,0.4413352,-3.1886,-9.179968,-6.936061,-4.476026,-11.23972,-7.564222
0,240,-7.495368,-10.05209,-12.42445,-10.57282,-8.902524,-5.22369,-9.637666,-8.058362,4.212204,1.523373,-3.507691,3.20257,3.442239,1.950245,-5.355336,-2.418966,0.092838,-7.59407,-3.541507
0,241,-10.45425,-13.54946,-14.80024,-13.65127,-11.9294,-8.692217,-13.02041,-11.48884,0.9193116,-1.604525,-6.544524,0.552819,0.9001256,-0.2596071,-8.337656,-6.392673,-2.715343,-9.824448,-6.18279
0,242,-10.10899,-14.32233,-15.91839,-14.28676,-11.97571,-9.188211,-12.62204,-11.85528,1.457311,-2.57243,-6.93145,0.4642413,1.058006,-0.9764972,-8.246176,-7.592187,-3.379242,-8.929038,-6.138629
0,243,-3.060002,-7.308158,-9.309104,-6.919712,-4.428043,-2.177802,-5.114364,-4.481704,8.161205,2.785738,0.02438388,6.294944,5.280203,6.738125,-0.60404,-1.886096,2.108995,-4.048438,-1.126331
0,244,-3.195315,-7.755002,-8.260518,-6.523599,-4.117214,-2.76629,-5.032562,-4.589767,6.40305,2.001704,-0.6463414,5.195785,4.140934,5.940858,-0.5218631,-1.623531,1.047209,-5.435569,-2.159477
0,245,-5.478261,-9.323073,-10.02658,-8.495555,-6.470159,-4.633421,-6.966528,-6.544449,4.756839,-0.8044208,-2.384396,2.43843,0.8540321,2.893408,-3.568784,-4.396321,-1.101737,-7.177375,-4.296716
0,246,1.744776,-1.396968,-2.750674,-0.8770858,0.8721363,3.191119,0.6854586,1.222408,13.46058,5.197539,5.755129,9.97602,8.352249,9.099827,3.263137,2.613034,6.251184,-0.6311242,2.560347
0,247,9.669374,8.331808,6.457728,8.468162,9.551268,12.10557,8.935027,10.05771,22.4663,11.33413,15.01137,16.95102,14.17162,15.5019,11.80587,9.240894,14.71525,6.219679,9.693453
0,248,10.19408,8.388699,8.165087,9.428893,10.51272,11.56492,9.075195,9.980115,21.95695,8.245556,15.15518,15.62811,12.59342,13.29206,12.77968,7.713869,13.50828,7.055739,9.423891
0,249,10.93888,9.703341,10.01783,11.07826,11.90282,12.10826,9.594186,10.90833,20.70158,8.048391,15.54649,15.57377,12.84999,13.48487,14.37713,8.183726,12.78546,7.104518,9.272286
0,250,10.46933,9.547035,8.125134,10.54424,11.5446,11.17717,10.76526,10.87992,17.3969,5.809453,13.24842,12.49346,10.21954,10.83899,13.25746,6.410087,10.95388,4.590486,6.853479
0,251,10.24375,8.822275,7.748885,10.23179,11.37171,10.67622,11.48311,10.69369,17.92022,3.753568,13.05056,11.44128,8.67882,8.741317,12.31952,4.433671,8.895513,3.207178,5.035975
0,252,10.81108,9.593656,9.705652,11.28647,12.07539,11.68291,12.10336,11.47275,19.89653,4.335361,14.6024,11.81271,7.918346,8.720765,12.61279,5.59978,9.811664,3.86974,5.811748
0,253,4.193671,2.755588,1.548038,4.100165,5.336461,4.916409,6.129747,4.76084,12.95381,-1.774402,7.006285,3.957534,0.1489235,0.2361827,6.295545,-1.266047,2.724681,-3.227621,-1.376269
0,254,-4.727904,-5.895137,-7.759195,-5.083153,-3.826405,-3.786083,-2.988556,-4.155749,2.936895,-7.636809,-2.360257,-4.212824,-7.683216,-6.47764,-2.564661,-9.966119,-7.149687,-11.14747,-10.0329
0,255,2.994564,2.422594,0.7213117,3.049273,3.897767,4.239437,5.107688,3.968919,10.5007,0.1596741,5.75325,4.053078,0.9999363,1.644139,4.32382,-2.692921,0.3251462,-3.471957,-2.471308
0,256,6.123733,5.566356,5.145939,6.813949,7.486524,7.033621,8.328771,7.065527,12.88534,1.83588,8.690523,5.86727,2.849893,2.278416,7.826823,0.5615043,3.130763,-0.9431264,0.2253865
0,257,3.872446,3.13203,2.625217,4.535446,5.328393,5.042972,6.47955,5.058155,11.25908,0.09851511,6.567902,3.637844,0.1353621,0.2573657,5.722106,-0.9214318,1.495868,-4.494445,-2.406279
0,258,7.345472,8.205585,6.612307,8.981336,9.194039,9.177278,10.4546,9.350142,14.62376,1.732722,10.6521,6.134891,2.087801,2.581498,8.902047,1.324099,3.533766,-1.44325,0.01402847
0,259,5.813005,6.827699,5.476044,7.818775,8.011783,7.38864,8.894218,7.765398,12.23226,-0.733446,8.781458,3.58937,-0.4180756,-0.4872565,7.954957,-0.7793298,0.7988151,-3.242956,-2.196077
0,260,2.965689,4.893132,3.765458,5.600335,5.40912,5.21991,6.169727,5.256395,10.19768,-2.061476,6.821134,1.071088,-3.557812,-3.110298,5.335399,-5.270584,-3.016368,-5.684376,-5.517728
0,261,3.847965,7.007386,5.560676,7.411767,6.85055,7.114733,7.57413,6.849917,12.44614,-0.3177878,8.720044,1.597725,-3.88514,-3.55227,6.995065,-5.203841,-2.054343,-5.855375,-5.456367
0,262,1.992694,5.496415,4.467925,5.923718,5.160502,5.322978,6.165797,5.115321,10.72233,-2.347777,7.050787,-0.6116899,-5.949071,-6.827551,4.969384,-8.512894,-4.360236,-7.843051,-7.831306
0,263,0.9441952,3.485337,3.162112,4.227274,3.77166,3.646399,5.022967,3.434148,9.806398,-3.542465,5.580268,-1.969778,-7.431129,-8.242647,3.575599,-10.23961,-5.33723,-8.017433,-8.511655
0,264,2.294759,5.993847,5.883642,6.637354,5.562174,5.704772,6.802064,5.57448,11.29355,-2.81182,7.747773,-1.101542,-7.308686,-7.264172,4.664728,-8.763692,-4.399246,-7.506262,-7.811582
0,265,3.231213,9.146774,7.327648,8.580189,6.757958,7.829828,7.659169,7.436852,12.3896,-1.646244,9.737153,0.339973,-5.852413,-5.710662,5.607674,-8.509641,-4.282785,-5.88295,-6.966225
0,266,-12.13698,-8.852762,-8.940439,-8.562381,-9.436307,-8.62019,-7.722154,-9.218015,-2.870525,-13.24011,-6.879241,-14.08835,-19.79965,-19.90783,-10.1046,-23.45989,-19.36384,-20.33111,-21.56334
0,267,-6.553097,-3.801508,-3.472217,-3.194941,-3.872699,-3.428164,-2.521438,-3.908887,1.410387,-6.874989,-1.974527,-8.558676,-14.1971,-13.22466,-4.207054,-16.8594,-14.59927,-14.61134,-15.95384
0,268,-9.693922,-6.767909,-6.603737,-6.507449,-7.404549,-6.395798,-5.437993,-6.904396,-1.412799,-9.577841,-4.835817,-10.41566,-14.96186,-15.91469,-8.584555,-19.88357,-17.83782,-17.04506,-18.62423
0,269,-9.385778,-7.033221,-6.500067,-6.515656,-7.158168,-6.254504,-5.331215,-6.818673,-1.767082,-7.143596,-5.050442,-9.412376,-13.33417,-14.87781,-7.883119,-18.35761,-18.63713,-16.74554,-18.37827
0,270,1.255736,4.525624,4.694296,5.15552,4.267561,4.428684,5.115311,4.208584,7.743565,1.071329,5.661498,-0.0149331,-4.360886,-5.496794,3.796214,-8.601326,-10.96103,-7.028162,-9.421575
0,271,6.602254,10.63908,10.39928,11.10523,9.954176,9.49997,10.63597,9.734147,11.44212,3.934141,10.56917,3.779948,-0.4384945,-1.621261,9.175353,-4.771927,-6.420853,-1.844118,-4.781456
0,272,15.00577,19.37743,19.69298,20.29806,18.89934,17.71808,19.84404,18.47334,19.89266,8.828082,19.20798,10.67164,6.177117,3.801481,17.36733,1.781905,1.236308,4.89444,2.083533
0,273,20.67353,25.4517,24.34597,25.86971,24.5439,22.90628,26.15361,24.13017,24.21908,11.49301,23.88475,13.7299,8.896189,7.064954,22.6532,5.427427,6.687289,10.56746,7.119741
0,274,21.65685,27.33632,26.00848,27.80914,26.17383,24.4032,28.34971,25.90524,25.8444,10.67731,25.41123,13.17867,7.361165,5.439056,23.6837,4.731878,6.40851,9.340828,6.033775
0,275,11.20897,16.65445,15.87301,17.45819,15.91213,13.44092,17.95196,15.2092,14.21155,-0.1839676,14.38907,2.091706,-3.490419,-5.681152,13.50116,-7.089346,-5.628319,-1.182852,-5.227394
0,276,7.898973,13.87878,12.52746,14.26556,12.56023,10.45408,15.08148,12.19912,10.90568,-2.958919,11.22761,-1.193872,-6.980788,-8.394256,9.81069,-11.56255,-8.921154,-4.565046,-8.844481
0,277,8.519948,14.98001,13.58025,15.15341,13.26604,11.38095,15.56643,12.89898,12.18175,-2.104542,12.29421,-0.5463431,-6.312063,-8.823279,10.63793,-11.05639,-8.657506,-3.332129,-8.055588
0,278,-0.2990197,6.163353,5.122332,6.364755,4.342201,2.795331,6.653,4.212076,3.225876,-9.638318,3.650644,-9.016718,-15.34254,-16.30357,1.381197,-18.89496,-19.3939,-11.66463,-17.0758
0,279,8.190569,14.19431,14.38796,15.18774,13.23912,10.9808,15.28638,12.58409,12.15301,-2.655087,12.41427,-1.284766,-8.69345,-8.33965,10.30915,-11.92704,-11.32283,-4.31463,-9.652645
0,280,6.295197,11.43814,12.24627,12.98951,11.41888,7.834729,13.54082,10.05064,7.765036,-6.178803,8.878942,-5.181373,-12.34622,-11.56433,8.655231,-15.1951,-13.42378,-6.470597,-12.05515
0,281,-7.640313,-2.023104,-1.222647,-0.9156634,-2.842451,-5.638535,-0.4000702,-3.639322,-6.045925,-18.29097,-4.698468,-17.80078,-24.04597,-24.73588,-6.200908,-27.89883,-27.37644,-19.32099,-25.11438
0,282,-5.219067,0.4198689,0.02120913,1.045972,-0.710856,-2.791647,2.319107,-1.021703,-2.545972,-14.92863,-2.006973,-14.75881,-21.53494,-20.92223,-4.109932,-25.69501,-25.03436,-17.04166,-22.87235
0,283,-5.889477,-1.483009,-1.173623,-0.2719341,-1.518489,-4.236411,2.05765,-2.236339,-3.800133,-15.42587,-3.540385,-16.42424,-24.10323,-21.4633,-4.940311,-28.17697,-27.99234,-17.9559,-24.82832
0,284,-5.56123,-0.04025865,-0.3900763,0.4854387,-1.094698,-3.893261,1.882048,-1.926715,-5.460401,-14.46428,-3.884903,-16.90803,-23.2967,-23.11539,-4.14098,-27.19675,-28.79916,-15.7658,-23.78592
0,285,4.083442,10.33016,11.19023,11.2288,9.101449,5.785042,12.44075,8.133501,4.325234,-7.475935,6.363194,-8.949595,-16.26568,-15.90873,5.00025,-20.47498,-19.41184,-7.173505,-15.46546
0,286,0.2042733,7.65167,6.16296,7.680834,5.389191,2.627873,9.222004,5.023515,1.313831,-13.44477,2.907998,-13.9095,-21.90184,-21.57871,0.9474959,-24.6782,-24.6683,-11.87533,-20.44882
0,287,5.270165,12.5337,11.78501,12.84607,10.43802,7.619168,15.41727,10.26211,7.050328,-9.490352,8.133215,-9.824466,-18.43653,-18.27418,4.893663,-21.17452,-19.97567,-7.647586,-16.33801
0,288,1.148015,8.978169,8.879616,9.478585,6.720941,3.664813,11.31949,6.427059,2.378793,-14.03947,4.195601,-14.56349,-23.28776,-23.27791,1.069435,-24.86094,-23.88186,-12.23445,-20.59207
0,289,-4.310608,3.789819,4.474154,4.32277,1.404594,-1.630425,5.452151,0.8482701,-3.140761,-17.71899,-0.9834399,-19.59531,-28.44765,-27.71677,-3.720709,-30.94053,-27.83209,-17.08408,-25.34802
0,290,-10.92635,-2.41021,-2.059255,-2.238212,-5.256826,-7.81124,-0.6886023,-5.566433,-8.994271,-23.27988,-7.327373,-26.74888,-36.37906,-35.10439,-10.54192,-38.33025,-35.26191,-23.38591,-32.33866
0,291,-18.43053,-9.313489,-9.980536,-9.913273,-13.08248,-14.34517,-8.00915,-12.65287,-15.01189,-28.00207,-14.1544,-33.0533,-42.64952,-42.0596,-18.4644,-44.46236,-43.25154,-30.15474,-39.37618
0,292,-21.78923,-14.1857,-14.26144,-14.47636,-17.13146,-18.38383,-12.07208,-16.79552,-19.15775,-28.86266,-18.39467,-34.60192,-42.89191,-42.90277,-22.18911,-45.83939,-46.71704,-32.2383,-41.51307
0,293,-19.4243,-11.66931,-12.31591,-12.3682,-15.073,-15.94823,-10.25618,-14.50454,-17.02963,-26.07878,-15.97201,-31.37194,-39.41858,-38.45699,-20.07194,-42.95778,-43.31845,-28.80928,-38.09255
0,294,-4.596114,2.749333,3.03279,2.779196,0.0971102,-1.662185,5.446333,0.3461901,-2.204608,-14.36731,-1.310348,-18.0077,-26.19442,-26.62271,-5.635823,-29.7536,-29.42206,-15.62164,-24.78098
0,295,-11.53944,-4.412005,-3.248355,-3.753957,-6.325731,-9.065263,-1.491709,-6.842612,-9.43354,-22.91171,-8.334736,-26.34533,-35.54452,-34.95006,-11.72386,-39.17934,-38.67413,-23.12056,-33.31712
0,296,-15.12132,-7.389854,-7.1107,-7.286821,-10.08943,-12.1524,-5.539241,-10.1494,-12.43864,-26.50748,-11.21096,-28.65198,-37.84006,-36.17747,-15.59285,-42.28885,-40.96841,-26.09914,-36.01228
0,297,-15.65321,-8.32676,-8.415553,-8.451824,-11.13299,-12.54054,-6.098569,-10.72991,-12.44174,-25.80404,-11.75511,-28.42591,-37.6328,-35.58765,-16.95026,-41.18073,-42.01772,-25.87571,-35.98166
0,298,-9.387821,-2.072303,-2.138488,-2.075696,-4.733785,-6.357888,0.8225071,-4.302074,-6.715901,-19.9591,-5.942288,-23.47791,-33.07896,-30.75329,-10.83052,-34.90182,-36.2137,-20.49128,-30.44115
0,299,2.991313,11.60381,11.15685,11.43066,8.240962,6.257779,13.20427,8.620647,5.135691,-10.63392,6.98612,-12.02616,-21.87401,-19.62184,1.751594,-23.92303,-25.13851,-8.602252,-19.06084
0,300,5.390547,15.63329,15.25181,15.14368,11.07564,9.203907,16.29683,11.87544,7.398088,-10.80836,10.27064,-10.63013,-20.83915,-18.90214,3.211689,-23.13192,-23.50689,-6.599163,-17.52589
0,301,7.498755,18.71936,16.94139,17.85289,13.69091,11.82823,19.67448,14.75284,9.945482,-9.978439,12.58001,-9.467455,-19.82581,-18.81043,5.613822,-23.24226,-21.66058,-6.862754,-17.29893
0,302,8.547359,21.38553,20.13191,20.49532,15.62762,13.8494,20.66542,16.55651,11.99893,-9.339475,15.17614,-8.610354,-20.11329,-18.11574,7.736845,-23.6339,-20.18741,-6.702576,-16.94563
0,303,7.634541,20.98125,19.42867,19.74035,14.54292,13.28607,20.04293,15.91431,12.39122,-12.00486,14.99169,-10.12332,-22.33257,-20.42315,5.782513,-24.59458,-21.03089,-6.977157,-17.59477
0,304,9.622343,22.55148,20.19304,21.37701,16.5218,14.31506,23.04923,17.74209,12.3444,-12.83052,15.50754,-10.37005,-22.61156,-20.2849,7.076058,-25.511,-22.29056,-5.836874,-17.77057
0,305,7.369938,20.06701,17.78158,18.75173,13.9414,11.96055,20.73907,15.30023,9.861498,-14.167,13.0239,-12.49994,-24.84571,-21.48075,4.378527,-27.64285,-23.6226,-7.309006,-19.29757
0,306,10.98045,23.7739,22.89543,23.06763,18.05969,15.70648,24.63593,19.13053,13.32265,-9.855563,16.90264,-9.122391,-21.83479,-18.23281,8.515858,-24.27723,-20.01141,-4.945272,-16.41685
0,307,8.771459,21.12131,20.13119,20.51006,15.6965,13.10538,22.94671,16.77419,11.0086,-13.17948,14.30688,-12.00975,-24.96364,-20.98353,5.719172,-27.90252,-22.84962,-7.451818,-19.29535
0,308,4.931104,18.02339,16.4196,17.18273,12.08968,9.797976,19.4684,13.53424,7.595572,-17.94632,11.03848,-16.08961,-29.69317,-24.87497,1.653107,-31.79402,-27.73583,-12.0991,-23.98277
0,309,4.288493,17.58177,16.77539,17.14002,11.98495,9.258764,18.30263,12.83811,7.374552,-18.44706,10.93981,-16.3546,-30.03696,-25.5599,2.414176,-33.15237,-27.65043,-13.25325,-24.74633
0,310,-7.883015,4.980073,3.9388,4.161229,-0.8028608,-2.929301,5.699407,0.3201548,-5.470369,-27.23195,-1.840781,-27.52983,-40.67861,-35.65012,-10.10577,-43.53611,-39.80042,-23.69845,-35.61531
0,311,-17.21733,-4.926373,-6.307072,-6.225656,-10.90998,-12.11858,-4.103104,-9.438178,-14.43737,-32.30555,-11.41597,-34.82991,-47.09089,-42.56322,-19.81774,-51.44883,-48.90271,-31.05688,-43.44945
0,312,-8.75501,2.47958,2.377558,2.029095,-2.308287,-4.288241,3.766145,-1.553592,-6.107558,-24.21866,-3.179905,-26.43184,-39.15469,-33.48773,-10.57505,-43.00872,-40.44658,-22.79541,-35.04598
0,313,-2.344903,9.891317,8.835507,9.111363,4.433447,2.47538,10.60016,5.554365,-0.489742,-19.35061,3.360514,-20.30857,-32.83579,-26.95926,-4.327374,-36.81487,-34.04922,-17.66103,-29.38195
0,314,-14.21732,-2.575843,-3.333525,-3.133926,-7.709233,-9.718668,-1.268948,-6.462303,-12.90098,-31.31512,-8.85206,-31.96812,-44.43394,-38.12616,-17.01285,-47.96777,-48.18028,-29.17906,-41.62486
0,315,-12.62112,-1.552822,-2.30443,-2.171173,-6.471846,-8.181073,-0.5600144,-5.358747,-10.61026,-28.03118,-7.18917,-28.98429,-40.93648,-35.27364,-15.00632,-45.02802,-45.82515,-26.23336,-38.69645
0,316,-8.910719,2.624359,1.066278,1.591492,-2.853838,-3.956457,3.672224,-1.119001,-6.902667,-23.2366,-3.39315,-24.4679,-35.75658,-30.72693,-11.76195,-40.27448,-40.81206,-23.39133,-34.8
0,317,-4.07042,7.459434,7.124127,7.123306,2.495564,0.691366,8.505724,3.85008,-2.74138,-19.58928,1.608209,-20.02136,-31.70589,-25.93005,-6.610197,-35.98027,-37.37061,-19.59164,-31.05792
0,318,-2.187721,9.687105,8.82548,9.084343,4.411144,2.98364,11.19858,6.017395,0.9139897,-18.12799,4.127422,-18.16054,-29.93451,-25.99841,-5.054214,-35.8404,-35.90582,-18.28128,-29.99181
0,319,-16.57223,-5.264883,-6.388216,-5.976905,-10.3424,-11.31353,-3.1515,-8.603555,-12.05471,-31.08759,-10.00466,-31.34334,-43.01468,-39.54429,-19.62742,-50.69127,-50.37368,-32.28053,-44.22873
0,320,-11.40074,0.05076492,-0.7610915,-0.8723637,-5.377373,-5.570421,1.842203,-3.328664,-6.202331,-22.84701,-4.353709,-25.19841,-37.33511,-32.74154,-14.61079,-44.44598,-45.61893,-26.18113,-38.51575
0,321,-0.07255352,12.05391,9.403076,10.63721,6.153295,5.743136,13.39058,8.276675,4.931985,-14.96198,6.603624,-15.52215,-27.16245,-24.89297,-2.963874,-32.3829,-33.66019,-15.55644,-27.29273
0,322,-4.214618,7.025601,6.417571,6.49507,1.941816,0.8762281,9.606695,3.815747,0.4780844,-20.91994,2.306352,-20.51158,-32.64334,-29.55145,-8.151436,-37.25708,-36.93611,-19.974,-31.43872
0,323,1.58622,13.19846,13.05116,12.94962,8.139967,6.974536,15.63139,10.02075,6.848138,-16.42966,8.865756,-15.10063,-28.56275,-23.12891,-2.300987,-32.42427,-31.27072,-15.31154,-26.53913
0,324,2.236226,14.13101,13.81937,13.89503,9.025225,7.636907,16.62864,10.86107,7.338144,-16.63387,9.573178,-14.79056,-28.38077,-22.69874,-1.531764,-33.22301,-30.62602,-15.49105,-26.62998
0,325,6.440944,19.55757,17.84621,18.56134,13.51998,12.38882,20.49687,15.2771,12.14903,-12.75326,14.19748,-11.15498,-24.77508,-20.32878,3.771231,-29.64741,-26.32234,-10.60435,-22.23467
0,326,13.29146,26.64231,25.05072,26.11609,21.03385,18.66486,28.14631,22.28981,17.96192,-10.2413,20.5501,-6.989556,-21.04055,-17.21375,10.88712,-25.19443,-21.00607,-5.577077,-17.43017
0,327,-7.099778,5.783727,5.266922,5.401421,0.2093863,-1.509943,7.803602,1.889224,-2.497173,-27.50376,0.1979613,-26.56096,-41.07163,-35.59237,-10.56585,-43.67214,-42.87737,-24.98537,-37.42519
0,328,-10.00741,3.331388,2.289688,2.458334,-2.744597,-3.455559,4.910078,-0.6891969,-4.334288,-25.99187,-2.100707,-27.8788,-42.74927,-35.97744,-12.86095,-46.24174,-45.19798,-27.89669,-40.09719
0,329,-10.46315,3.146521,1.673636,1.862486,-3.495055,-3.679508,4.840674,-0.9666666,-4.252511,-26.36143,-2.285117,-27.88116,-42.52474,-36.08971,-14.23336,-47.25097,-44.6467,-28.0318,-40.15616
0,330,-17.5971,-5.284693,-5.434879,-6.00868,-11.11232,-11.18771,-2.799271,-8.620351,-11.21498,-31.72977,-9.605659,-33.61958,-47.83367,-41.358,-21.87483,-52.0808,-51.01861,-34.43867,-46.07755
0,331,-14.6284,-3.133795,-3.198669,-3.516929,-8.249017,-8.625824,0.1975541,-5.818447,-9.666337,-27.35347,-7.506871,-30.04305,-43.87403,-36.24153,-18.8664,-48.53028,-49.63273,-32.16683,-43.80999
0,332,-4.617324,7.044455,6.677144,6.757014,1.960662,1.419155,10.49906,4.438342,0.9572575,-19.86049,2.822473,-20.72149,-34.93202,-27.64418,-9.013062,-38.72449,-39.84459,-23.07377,-34.43309
0,333,-3.441259,9.19337,9.034313,8.839633,3.7246,3.027974,11.45287,5.797908,3.362797,-19.42911,5.046652,-19.44188,-33.62974,-28.17484,-6.688888,-39.65611,-38.12297,-22.02768,-33.54283
0,334,-8.913452,4.258042,3.829638,3.78732,-1.580182,-2.024054,6.589984,0.8630377,-1.66389,-25.51315,0.08498907,-24.92895,-39.52213,-33.62867,-12.64972,-45.83024,-44.34412,-28.46141,-39.94495
0,335,-10.50694,2.312837,2.058399,2.082165,-3.240748,-3.696265,4.879336,-0.7461122,-2.73572,-28.3092,-1.232134,-26.52839,-41.82772,-34.73251,-14.63807,-47.02113,-47.10646,-30.12087,-41.87782
0,336,-14.09004,-0.7807773,-1.081033,-1.373003,-6.974877,-7.230711,0.9616748,-4.309301,-7.458505,-30.83519,-4.941737,-29.4663,-44.00242,-37.23673,-18.62325,-50.59584,-51.76533,-32.35652,-45.03882
0,337,-8.114129,5.004433,4.969829,4.667956,-0.9180284,-1.288624,7.758761,1.897441,-1.582312,-25.44526,0.8352313,-24.60307,-40.01416,-31.83191,-13.13885,-44.86113,-45.8892,-27.62652,-39.91616
0,338,-12.10032,0.7250949,1.844769,0.9600166,-4.635376,-5.22706,3.161205,-2.245241,-4.776309,-29.34794,-2.644776,-28.44232,-44.34827,-36.15813,-16.31721,-47.49128,-49.63241,-31.66033,-43.56646
0,339,-15.34301,-2.530573,-2.304524,-2.589773,-8.083442,-8.837006,-0.4126989,-5.628635,-9.420049,-33.21973,-6.61727,-31.34029,-45.86876,-39.21808,-19.75078,-50.00457,-53.63525,-34.3141,-46.50467
0,340,-21.21448,-7.286425,-7.818305,-8.104725,-14.00197,-13.78937,-6.3071,-10.95276,-15.10499,-36.35345,-11.93698,-35.76337,-49.48809,-43.97066,-25.69729,-54.8819,-59.34733,-39.62535,-51.80172
0,341,-15.81247,-2.167466,-2.395813,-2.87471,-8.758842,-8.056746,-0.5805973,-5.402763,-8.359162,-30.2388,-5.964282,-30.01347,-44.80389,-37.58718,-20.84009,-49.27852,-53.99423,-34.53938,-46.5923
0,342,-9.321267,4.553,4.054885,4.048687,-1.909272,-1.796437,6.005213,1.291415,-2.579329,-26.97236,0.3311019,-25.16597,-40.63248,-32.41279,-14.20418,-42.66645,-47.96841,-29.03652,-40.84034
0,343,-22.1336,-9.501903,-9.725864,-9.965193,-15.33664,-14.92877,-6.600382,-12.16764,-15.07255,-36.15125,-13.33031,-37.26337,-51.95912,-45.05531,-27.09614,-54.74582,-59.40356,-41.16945,-52.66358
0,344,-26.85899,-14.68375,-14.02521,-15.07306,-20.41464,-19.35895,-12.25286,-17.14287,-19.7737,-36.41271,-17.83303,-39.70087,-54.1598,-45.9908,-31.65442,-57.11576,-64.18741,-44.46747,-56.07738
0,345,-23.20729,-11.13907,-11.33638,-11.76149,-17.03714,-15.87638,-8.346812,-13.40611,-16.28396,-34.20252,-14.35104,-35.6622,-49.56075,-41.8258,-28.88858,-53.74803,-60.78386,-41.00681,-52.60131
0,346,-16.79509,-4.615755,-5.447292,-5.565265,-10.80368,-9.221508,-2.100803,-6.975376,-9.037066,-27.73594,-7.629982,-28.98944,-43.24971,-34.76131,-22.49352,-47.07749,-53.02771,-34.23558,-45.53221
0,347,-4.99154,6.909486,6.048175,6.379838,1.313796,2.18566,9.067035,4.59472,3.230782,-19.57508,4.32654,-18.21949,-33.16434,-24.14709,-9.8178,-34.90656,-40.03046,-22.98495,-33.57289
0,348,-5.784328,4.561573,4.692893,5.050917,0.4208845,-0.05352232,9.027715,3.29349,0.8944469,-24.4456,2.15961,-21.35188,-36.76171,-26.84257,-11.70623,-36.61666,-42.33711,-24.97963,-35.72176
0,349,-25.23552,-15.99345,-15.63028,-15.60378,-19.80163,-19.65306,-11.41404,-16.90462,-18.07991,-40.03981,-17.60613,-38.6466,-53.01635,-44.11873,-31.15583,-53.48118,-61.14099,-42.24299,-53.14532
0,350,-30.82801,-21.42151,-20.64296,-21.32593,-25.76893,-24.51617,-17.88314,-22.45452,-22.49427,-42.2737,-22.19609,-41.89051,-56.42339,-46.14686,-36.94043,-57.00738,-65.4791,-46.21344,-56.98411
0,351,-25.52713,-16.91602,-16.20943,-16.87353,-21.05846,-19.43559,-12.47339,-17.40741,-17.44964,-35.50961,-17.41479,-36.13482,-50.70941,-39.41385,-32.64994,-50.74464,-61.57708,-40.09127,-51.50836
0,352,-20.75393,-10.79723,-11.43514,-11.45262,-16.04756,-13.62932,-7.301945,-11.74754,-11.69512,-30.74845,-11.6786,-30.74793,-45.43589,-34.16769,-27.88563,-45.93507,-55.86165,-36.29631,-46.97712
0,353,-11.47243,-2.037884,-2.701966,-2.267433,-6.592532,-4.816476,2.123345,-2.571229,-2.778627,-23.44881,-2.76533,-22.06164,-36.95054,-25.09397,-18.36756,-37.22282,-46.64438,-28.26811,-38.48037
0,354,-0.08064926,10.62764,10.42953,10.61235,5.684235,6.553671,13.95479,9.328956,7.755816,-16.17416,9.017242,-13.08951,-28.9526,-16.49252,-6.667718,-28.62545,-36.37061,-17.9676,-28.71617
0,355,-12.73457,-0.7500029,-0.5027084,-1.054603,-6.634002,-5.20149,0.8055577,-2.886421,-3.68301,-28.4353,-2.294714,-25.56696,-42.10424,-29.34977,-18.8148,-40.49751,-46.75822,-29.96322,-40.19151
0,356,-7.45538,4.212155,3.864784,3.898346,-1.36968,-0.4986632,5.449252,1.91132,1.021191,-24.79167,2.400156,-20.80668,-36.81544,-25.23827,-12.88825,-35.28759,-42.29926,-23.97452,-34.77493
0,357,2.656609,13.18028,13.32902,13.56443,8.716456,8.6667,16.15162,11.65598,10.2955,-17.04008,11.43682,-12.35903,-28.36058,-17.49392,-3.191389,-25.22267,-33.42228,-14.91063,-25.66451
0,358,1.807773,11.76741,12.6368,12.69553,8.003775,7.200688,15.57258,10.55067,8.746567,-19.66121,10.01988,-14.89978,-31.66955,-19.76536,-4.111911,-26.80345,-35.27209,-16.21605,-27.30962
0,359,5.588749,14.38759,14.70025,15.80855,11.90847,9.48502,19.60276,13.58274,10.36851,-19.11794,11.87963,-13.44381,-29.96989,-17.96223,0.3863075,-25.35904,-32.37014,-13.49628,-24.8611
0,360,9.146757,19.02321,18.86013,19.97951,15.49526,13.51945,23.86712,17.7886,14.45127,-17.98792,16.11455,-11.07977,-28.4501,-15.92297,2.628422,-22.42949,-29.15103,-9.907576,-21.66014
0,361,3.923554,13.47699,12.10472,14.17745,10.07503,7.70681,18.95937,12.26651,8.596872,-25.12759,10.05936,-17.55151,-35.11799,-22.06409,-2.844814,-29.7345,-35.99079,-14.95094,-27.7796
0,362,-1.254622,7.694369,7.185118,8.556666,4.553692,2.067605,13.36013,6.555755,2.661364,-28.968,4.426302,-22.2845,-39.46368,-26.09441,-8.315978,-34.92046,-40.94295,-18.74441,-32.08856
0,363,0.7955981,10.42944,10.6396,11.35209,6.89181,4.354047,15.58911,8.971502,3.816968,-26.40158,6.593241,-20.25117,-36.86885,-24.53235,-6.372305,-32.4169,-38.80619,-16.94897,-30.04904
0,364,-8.117192,2.71742,2.014147,2.819441,-2.065789,-3.720368,6.576079,0.498406,-4.303216,-34.52062,-1.545594,-29.1422,-46.38328,-33.33349,-15.46562,-41.1989,-47.98575,-24.71007,-38.51487
0,365,-18.53085,-8.428263,-8.931724,-8.247391,-12.74202,-14.11776,-4.351077,-10.36337,-14.08856,-41.91959,-12.03466,-38.48894,-55.87638,-42.41356,-25.32981,-50.98984,-59.96817,-34.13341,-48.75384
0,366,-21.38572,-11.29094,-11.1005,-11.16376,-15.96827,-16.56469,-7.215934,-12.9539,-16.92701,-42.31776,-14.54471,-39.30856,-55.64211,-42.96206,-29.24525,-51.3386,-61.02312,-36.70246,-50.25435
0,367,-9.12551,1.506466,0.9874252,1.530983,-3.317542,-4.230076,5.676924,-0.3360361,-4.888599,-31.64767,-2.372233,-28.05367,-44.43141,-32.37152,-16.66988,-40.53906,-49.20127,-25.82243,-39.21713
0,368,-16.93579,-6.832712,-6.999741,-6.677061,-11.26062,-12.23755,-2.930087,-8.676379,-12.43405,-37.93504,-10.29261,-35.02668,-50.87784,-39.96159,-23.73651,-47.6179,-57.39009,-32.48138,-46.30997
0,369,-9.552868,-0.5779774,-1.145011,-0.3060432,-4.323306,-5.314474,4.724773,-1.70856,-4.707335,-30.60025,-3.545622,-28.01015,-44.40721,-32.117,-16.75715,-40.29137,-49.87767,-25.23011,-39.00231
0,370,4.78307,15.57119,13.29646,15.21173,10.79785,9.473348,19.77795,13.42346,9.170208,-19.38136,11.08508,-15.56636,-32.469,-20.3107,-1.745739,-29.26341,-37.09591,-12.2847,-26.70836
0,371,5.354705,16.30031,16.06397,16.88546,12.14179,9.8147,20.79976,14.07289,10.12866,-21.33302,12.17305,-16.64098,-34.13739,-23.61003,-0.7664775,-30.49882,-37.78309,-12.86096,-27.56479
0,372,-5.811894,4.9513,5.5326,5.749161,0.9424548,-1.725704,9.583291,2.641629,-1.72689,-32.85643,0.6338687,-28.61541,-46.07626,-35.55582,-12.05629,-41.69321,-47.5494,-23.55639,-38.05853
0,373,-17.24803,-5.524635,-5.353282,-5.476346,-10.62835,-12.12621,-1.863632,-8.413205,-11.98343,-40.43647,-9.922001,-38.23811,-55.10008,-46.10025,-23.48724,-52.91299,-59.0472,-33.91788,-48.87069
0,374,-14.12835,-1.450011,-1.416196,-1.706031,-7.240803,-8.004158,0.9743688,-4.754362,-7.559214,-35.92494,-5.662911,-34.39415,-51.89858,-42.12442,-19.74444,-48.47143,-54.27477,-30.97497,-45.09391
0,375,-0.7981356,12.92328,11.68183,12.32766,6.6332,5.570809,15.09345,9.229366,4.805884,-23.96089,7.452502,-21.82584,-38.80266,-30.09744,-5.962759,-36.78833,-41.5953,-19.54391,-33.34453
0,376,-9.754766,3.402082,2.666547,3.034117,-2.563788,-3.811726,6.376616,0.09848651,-5.388991,-32.46359,-2.250325,-31.20787,-48.20767,-38.42931,-15.63933,-45.30148,-51.35625,-28.34722,-42.41398
0,377,-5.020593,9.162055,7.370865,8.143246,2.212568,1.590994,11.4058,5.363062,0.2190312,-28.10752,3.190063,-26.19571,-43.1284,-34.19436,-11.2328,-41.04767,-46.6818,-23.5823,-37.80629
0,378,-6.437323,7.738425,5.747988,6.771328,0.8863997,0.1675661,10.41543,4.051562,-0.6729696,-30.46436,1.910976,-27.78568,-44.6888,-36.76559,-12.81242,-43.50144,-49.33555,-25.59771,-40.14544
0,379,-8.822473,4.144908,3.924902,3.867737,-1.712201,-2.660111,7.620385,0.9497324,-2.567955,-30.8759,-0.5605435,-29.76646,-47.2277,-38.26847,-14.99508,-46.04361,-51.83307,-27.07215,-42.08239
0,380,-5.115632,8.244843,7.643868,7.660309,1.916566,1.267065,12.20433,4.9819,1.497157,-27.58867,3.177381,-26.58028,-43.81541,-35.9095,-11.98947,-42.87386,-46.09424,-24.01338,-38.22315
0,381,-4.165192,10.36822,7.991697,9.109346,3.221473,2.812246,13.15936,6.478991,2.495257,-27.57338,4.404928,-26.27479,-44.03594,-35.12765,-10.23024,-42.19385,-44.81345,-23.73296,-37.67798
0,382,-7.179521,6.675019,5.455507,5.975771,0.1980185,-0.8055193,10.55952,3.205161,-1.689878,-30.22138,0.7593799,-29.42594,-46.83089,-38.1038,-13.72101,-46.55217,-49.83366,-27.02309,-41.70594
0,383,-6.978213,7.122187,6.643648,6.686299,0.6958861,-0.5410521,9.932069,3.347254,-1.60017,-30.00441,1.375049,-28.64174,-45.60071,-38.31509,-12.85319,-45.31068,-51.45963,-26.12211,-41.44085
0,384,-16.58579,-1.995011,-3.751182,-3.339124,-9.230659,-9.618748,-0.2734225,-6.397705,-10.66243,-36.23759,-8.104071,-36.83673,-53.12631,-46.59076,-21.78223,-54.78934,-60.46351,-33.99842,-49.87275
0,385,1.782354,16.75318,14.566,15.33066,9.215024,8.631556,19.15796,12.39205,7.523442,-20.91301,10.32426,-19.47727,-35.96722,-29.72665,-4.725323,-38.76595,-44.37648,-16.55042,-33.24182
0,386,-1.273826,13.31778,11.26203,12.1854,6.130117,5.125063,16.29636,9.255681,4.140269,-26.69885,6.999048,-23.91488,-41.30132,-33.45636,-8.383581,-42.01799,-48.02877,-19.92282,-36.77406
0,387,-3.003942,11.85886,9.865148,10.57545,4.515928,3.688123,14.11433,7.420254,3.032004,-27.12201,5.730838,-25.50101,-43.94414,-33.54263,-9.197727,-44.88787,-47.90583,-21.20066,-37.93858
0,388,-1.225394,13.18112,12.52581,12.4574,6.282858,5.13864,15.88929,9.09256,4.186755,-25.68047,7.339316,-23.88139,-42.21495,-31.89313,-7.950957,-42.02738,-46.23025,-19.4757,-35.98114
0,389,-6.72743,7.651741,7.180468,7.029786,0.7735533,-0.3281614,10.75788,3.767836,-1.465668,-31.49688,1.808898,-29.91671,-48.8179,-37.50694,-13.99853,-47.32331,-52.84975,-25.29385,-42.03839
0,390,-1.794716,12.29606,12.09766,11.78839,5.644523,4.105476,15.89978,8.455983,1.951772,-26.29825,5.832429,-25.79267,-44.37801,-32.99442,-9.210326,-42.9358,-48.5505,-20.16687,-37.33972
0,391,-5.654047,8.588858,8.921083,8.236526,1.922534,0.343807,12.51824,4.765162,-1.576744,-30.4619,2.196359,-30.13217,-48.91661,-38.2431,-13.38604,-47.33783,-53.13991,-24.38173,-41.77378
0,392,-4.106547,10.49878,9.094021,9.684753,3.487426,1.832224,14.21476,6.516276,-0.4842748,-31.09532,3.367948,-29.24194,-47.72773,-37.52114,-11.83482,-45.87276,-52.1308,-23.33891,-40.71098
0,393,-7.394746,9.019931,6.995333,7.4509,0.5671248,-0.02587911,10.0479,3.88406,-1.842963,-33.5169,1.85799,-32.07859,-51.62292,-40.88519,-14.17679,-47.45907,-54.76635,-25.43295,-42.92257
0,394,-4.852891,12.76378,9.475732,10.57528,3.290092,3.438781,13.42794,7.413462,0.8203546,-30.61714,4.886858,-29.50508,-49.34618,-38.13787,-12.21189,-44.62547,-53.85994,-24.00554,-41.54049
0,395,-7.447672,9.769288,6.405248,7.955933,0.9341998,0.3415201,11.15945,4.744652,-2.68332,-34.64715,1.62029,-32.7731,-52.22773,-41.5928,-14.44097,-47.88767,-56.71629,-28.00697,-45.0751
0,396,-13.60466,4.130095,1.477152,2.514321,-4.85015,-5.587336,4.902514,-1.114822,-9.386184,-40.46977,-4.193795,-38.59548,-57.91699,-47.15574,-20.2972,-53.9923,-62.84531,-34.65313,-51.44093
0,397,-15.15547,3.086634,0.9260124,1.320923,-6.428383,-6.604555,3.571388,-2.342458,-10.152,-40.80061,-5.021428,-39.31483,-58.40793,-48.62485,-22.3744,-55.31564,-63.91082,-35.94377,-52.63066
0,398,-9.887858,6.756012,4.51734,5.478272,-1.539309,-1.737648,9.775347,2.61909,-3.173858,-36.10707,0.004420761,-34.39165,-54.67822,-43.2976,-17.74001,-51.05603,-58.56921,-32.18471,-48.38814
0,399,-13.58635,3.62638,0.5576763,1.795321,-5.366189,-5.114634,6.643173,-0.7233728,-7.358936,-38.54699,-3.801356,-37.53489,-57.23282,-46.03592,-21.97157,-55.73017,-62.17212,-36.06158,-52.33403
0,400,-13.58706,4.319159,0.9066933,2.044207,-5.434344,-4.965395,6.968155,-0.4493841,-8.369908,-38.04046,-3.971228,-37.38597,-56.30484,-45.87075,-22.59804,-56.35436,-62.34716,-35.68152,-52.30047
0,401,1.48995,20.49234,17.10032,18.46281,10.65797,10.31855,22.58603,15.25073,5.816102,-25.17659,11.17645,-24.35479,-43.92281,-33.36583,-6.331838,-42.58313,-47.88853,-22.80551,-38.98637
0,402,-0.6542414,17.99166,15.02044,16.41325,8.70382,7.664648,20.61401,12.99553,2.726042,-28.94406,8.417418,-27.54147,-46.7283,-37.5269,-8.442389,-44.24503,-51.3743,-25.57699,-41.8081
0,403,-5.449625,12.366,9.601661,11.2078,3.847705,2.134424,15.61857,7.724602,-2.528915,-35.62166,2.9825,-33.25298,-52.52497,-43.37791,-13.14622,-48.96456,-56.81221,-30.35143,-46.78264
0,404,-16.03078,2.898448,0.1739554,0.9608902,-7.021571,-7.074854,4.587847,-2.374092,-11.02904,-42.5606,-5.936032,-41.70536,-61.36473,-51.64209,-24.18908,-58.07042,-65.96999,-39.11139,-55.64549
0,405,-13.54197,6.239387,2.646493,3.736336,-4.422554,-3.982243,6.611713,0.4468618,-9.12624,-37.73066,-3.31707,-37.96993,-56.87354,-47.1774,-20.91422,-54.445,-62.27633,-36.47306,-52.41287
0,406,-13.87125,6.148805,1.402318,3.136675,-4.886136,-4.343973,5.881789,-0.004281431,-10.24237,-37.30051,-4.170149,-37.95719,-55.81583,-47.60957,-20.8263,-54.17887,-63.398,-35.94697,-52.38597
0,407,-6.036383,13.53858,9.751746,11.08155,3.054451,3.363306,14.22988,7.908392,-1.878551,-30.21658,3.873561,-30.06973,-47.96817,-40.30794,-13.39037,-46.55593,-54.97195,-29.33897,-45.01936
0,408,1.194464,20.27778,18.07751,18.5477,10.32742,9.782168,22.16761,15.04619,4.200034,-25.84959,10.72838,-23.73872,-41.39312,-33.75938,-7.446624,-41.04937,-46.59201,-23.02414,-38.19552
0,409,-5.892475,15.03639,10.907,12.22092,3.445684,3.79495,15.04661,8.852998,-2.339458,-33.28495,4.641159,-30.14214,-47.67852,-40.17575,-14.49106,-48.19138,-53.56179,-30.07568,-45.26322
0,410,-17.13311,2.244305,-1.694107,-0.7144505,-8.947173,-7.353451,3.558511,-3.018308,-11.73983,-40.16603,-6.581837,-39.61566,-57.90717,-48.28586,-26.89069,-57.45149,-65.04326,-39.23946,-55.08225
0,411,-16.08761,1.696545,-2.192535,-0.9473492,-8.448184,-7.116913,3.781529,-2.864351,-11.29708,-37.77996,-6.552287,-37.57199,-55.16304,-45.23814,-25.54189,-54.87848,-63.63201,-37.31915,-53.02145
0,412,-20.60085,-2.661863,-6.895216,-5.93194,-13.53425,-11.21543,-1.311982,-7.403329,-16.5824,-38.11031,-11.3094,-40.46327,-57.35558,-46.59047,-30.45742,-56.73483,-67.21116,-40.00642,-55.69837
0,413,-25.81485,-7.514553,-12.36074,-11.70244,-19.45129,-15.84652,-7.003278,-12.63553,-22.1589,-38.52628,-16.78431,-43.92693,-59.32465,-49.98007,-36.09406,-58.51418,-69.65276,-43.07081,-58.14569
0,414,-21.32584,-3.976645,-7.209177,-7.565752,-15.18088,-11.49045,-2.632107,-8.533233,-16.43652,-32.28364,-11.94128,-37.94197,-52.65805,-45.37562,-31.80379,-53.30095,-64.22043,-38.34625,-52.94279
0,415,-4.786022,12.24677,9.86613,9.530973,2.002746,4.872812,14.03587,8.097308,0.9638773,-18.42432,5.057031,-22.08025,-37.38114,-30.7214,-14.42765,-37.19667,-48.26079,-23.83657,-37.74517
0,416,-2.56297,15.40168,12.64534,12.50029,4.522506,7.279194,16.56697,10.92742,2.024152,-17.87276,7.425449,-19.83018,-34.6542,-27.72211,-12.60886,-35.50908,-45.19004,-22.68159,-35.88683
0,417,-8.747582,7.392462,4.127583,4.660342,-2.431332,-0.1620123,10.37926,3.75425,-5.268638,-24.43939,-0.5738339,-26.73342,-40.87064,-34.38884,-19.35997,-41.04516,-51.71309,-28.06573,-41.60147
0,418,-6.128878,9.441742,6.731772,7.06193,0.147077,2.121507,12.96491,6.182854,-3.528547,-20.88399,1.56402,-23.62784,-37.3557,-30.50682,-16.69325,-38.26687,-49.20208,-25.81326,-39.11156
0,419,-10.60679,5.285873,2.002818,2.489777,-4.404938,-2.18589,7.984059,1.625138,-8.496484,-23.38677,-3.075934,-27.01029,-39.6494,-34.00669,-20.56351,-42.28262,-53.09743,-29.51013,-42.81152
0,420,-4.816067,9.776555,7.753389,7.839754,1.248982,2.540286,12.92904,6.693716,-3.764339,-19.38947,2.11986,-20.89739,-33.01724,-27.06162,-14.78288,-35.65963,-46.64409,-23.45012,-36.34021
0,421,-2.006197,12.64033,8.887757,10.17084,3.875284,5.235912,15.51859,9.479934,-2.010194,-16.83988,4.137958,-18.42769,-30.43679,-22.86944,-11.59332,-32.0415,-42.02078,-20.80027,-32.90216
0,422,1.711884,18.71497,14.41265,15.28851,7.881186,10.54997,19.68619,14.4986,2.632844,-12.19372,9.596913,-13.82571,-26.25193,-17.97032,-8.623848,-28.56754,-37.13978,-17.11149,-28.9425
0,423,-0.4254493,15.10408,12.24417,12.42861,5.516254,7.440113,17.38505,11.51382,-0.4741023,-13.02951,6.420677,-15.76233,-27.37762,-20.01846,-10.58531,-30.94173,-39.1279,-18.93642,-30.80652
0,424,6.723351,21.98741,19.17042,19.13871,12.27592,14.70718,24.99021,18.60063,7.903088,-5.073758,13.82396,-7.880374,-19.11556,-12.86587,-4.185676,-24.2285,-29.57985,-11.65685,-22.85765
0,425,1.967018,17.07577,14.92373,14.36914,7.300565,10.04751,20.62656,13.98215,4.037172,-10.29775,9.534403,-12.0768,-22.97174,-18.06976,-10.07838,-28.41574,-33.40884,-16.50336,-27.19887
0,426,-14.84326,1.202973,-1.656244,-2.482498,-9.911319,-5.916981,2.547842,-2.66996,-13.70098,-21.82856,-7.146814,-25.97436,-34.8935,-31.40908,-26.55411,-41.31118,-48.67262,-30.93114,-41.32099
0,427,-14.54641,1.115362,-2.107309,-2.927703,-10.06799,-5.502787,2.496499,-2.619443,-14.14817,-16.9443,-7.533211,-23.78284,-31.23707,-28.36212,-25.87603,-39.08603,-45.60827,-30.04741,-39.32084
0,428,-8.902924,6.432077,3.039286,2.480454,-4.57265,0.3570612,7.632674,3.029982,-6.788288,-12.25631,-0.9888291,-16.87762,-24.92633,-20.67988,-20.30296,-32.70362,-38.38963,-24.59433,-33.04448
0,429,-13.80212,-0.3389429,-2.795438,-3.585792,-9.933161,-5.473148,2.933059,-2.664566,-11.91628,-15.99882,-7.007547,-21.34299,-28.32635,-25.94766,-25.44072,-36.79177,-42.46868,-29.77197,-37.55047
0,430,-20.29517,-8.03002,-9.929161,-11.10001,-16.95875,-12.29493,-4.145621,-9.810725,-18.88738,-18.21459,-14.28314,-25.57569,-30.66595,-30.33079,-31.59061,-41.00605,-47.06548,-35.46737,-42.35282
0,431,-15.22193,-3.436061,-4.925368,-6.376441,-12.10551,-7.219742,0.2755725,-4.97756,-13.70259,-11.40166,-9.172709,-19.04062,-23.60525,-23.00649,-26.22287,-34.14332,-39.5042,-30.05749,-35.82864
0,432,-7.964516,3.446949,2.282474,0.7614692,-4.941903,-0.1107571,7.583435,2.296031,-6.463873,-4.692744,-1.866498,-11.20495,-15.60315,-14.62362,-19.42402,-26.52377,-31.49958,-23.34103,-28.47489
0,433,0.2612489,11.2734,10.48546,8.90067,3.308158,7.175626,15.36402,10.02377,0.05493626,1.455709,5.621747,-3.15081,-6.486702,-6.549729,-11.18618,-19.723,-24.12379,-14.60503,-20.40487
0,434,4.523974,17.30509,14.337,13.85445,7.903673,12.37484,20.14085,15.09256,5.098862,4.478785,10.51848,0.09273927,-3.874,-3.466413,-6.456291,-16.71315,-17.62971,-11.09648,-16.22974
0,435,1.411183,16.05936,13.77046,12.3545,5.512819,10.56882,17.39808,12.97374,2.706707,3.333803,8.75315,-2.505825,-6.233068,-7.657118,-8.938429,-19.4568,-19.05761,-15.09393,-19.23428
0,436,4.858306,19.0812,16.26931,15.32401,8.795132,13.87365,20.92485,16.26411,6.278524,7.000325,11.86599,0.9138943,-2.93491,-3.76188,-5.383736,-16.03103,-15.10468,-11.89709,-15.76961
0,437,6.241021,20.32551,17.1859,16.63399,10.15308,15.04008,22.94749,17.77172,7.859097,6.003098,13.16573,1.407968,-2.852744,-3.258902,-4.692067,-15.70264,-13.49767,-11.429,-15.05285
0,438,4.229663,18.9544,15.12961,14.98186,8.345543,13.28788,20.89572,16.09597,5.175585,3.986262,11.0022,-0.5065732,-3.786299,-5.913257,-6.267707,-16.28111,-14.34684,-13.99918,-16.67921
0,439,2.22362,15.90768,12.07444,11.9824,5.759983,10.47354,18.5941,13.33564,3.012162,1.331931,8.299149,-2.270875,-4.73232,-7.957046,-8.824179,-18.63088,-15.40092,-14.7743,-17.69285
0,440,-0.08335817,13.30041,9.089528,9.223792,3.083096,8.090155,16.31589,11.01892,0.4177924,-0.9996442,5.772768,-4.472219,-7.424418,-8.209807,-11.87973,-20.31999,-16.65618,-16.92056,-19.47458
0,441,-5.143961,8.567983,6.049749,4.604064,-2.100773,3.458547,10.78751,6.061862,-4.722746,-3.398707,1.333737,-8.31936,-10.94671,-12.0232,-17.51552,-23.27683,-21.19871,-20.53185,-23.13322
0,442,-8.153927,5.241829,1.635924,0.934955,-5.321352,0.1894234,7.380248,2.688999,-8.6743,-4.86662,-2.556811,-10.93207,-12.87816,-13.6681,-19.72946,-26.16919,-23.20902,-23.18029,-25.56338
0,443,-11.45587,2.241813,-2.337555,-2.67087,-8.898217,-2.765106,4.41433,-0.4414667,-12.15489,-5.940556,-6.250584,-13.70379,-14.46492,-17.52201,-23.2272,-28.14314,-25.91176,-26.20187,-28.257
0,444,-22.67767,-10.53555,-13.73,-15.15974,-20.86068,-14.31984,-8.020326,-12.80575,-22.34147,-12.37973,-17.52357,-22.67708,-23.22059,-25.89103,-34.11607,-38.49552,-36.83324,-34.66388,-37.60044
0,445,-27.4821,-16.26017,-19.22306,-20.98867,-26.40068,-19.11505,-13.70891,-18.10176,-26.83007,-13.47462,-22.39081,-24.93896,-24.79263,-26.79275,-39.23594,-41.01928,-40.59554,-37.78607,-40.56772
0,446,-22.49854,-12.44579,-15.19377,-16.86665,-21.74177,-14.38128,-9.417122,-13.62255,-21.72873,-6.078853,-17.84296,-18.26665,-17.28955,-19.56903,-33.59201,-33.64516,-33.58054,-32.79804,-34.30606
0,447,-16.23049,-7.803323,-9.968237,-11.66684,-15.94407,-8.845894,-3.621454,-8.063873,-15.64049,0.6078828,-12.36721,-11.6539,-10.5736,-11.91858,-27.36026,-25.22765,-25.23256,-26.41165,-26.8084
0,448,-0.29602,8.153693,7.653829,4.881986,0.1339021,6.582002,12.1157,7.85761,-1.003095,14.15405,3.615164,4.171739,5.944189,3.760258,-12.29644,-9.07277,-8.952848,-10.33186,-10.5374
0,449,8.436435,18.10305,16.10608,14.16073,9.182765,15.55359,20.0014,16.67338,8.391365,19.48494,13.0743,11.94667,12.91423,11.61349,-2.605356,-1.893398,0.6863288,-0.6611919,-1.386372
0,450,-1.317639,8.216512,4.845429,3.720522,-0.9804366,5.524672,9.832454,6.629916,-2.530148,9.852902,2.416425,1.456592,2.132293,2.755285,-12.45237,-10.90303,-9.993814,-9.06383,-10.6577
0,451,-9.248865,-0.8185509,-3.296203,-4.999025,-9.382255,-3.079663,0.9798175,-2.094313,-11.6138,3.934613,-6.444145,-5.602879,-3.578464,-4.617682,-20.35347,-16.23846,-18.26782,-15.21076,-17.11038
0,452,-11.61736,-3.638825,-7.434013,-8.176212,-12.07771,-5.523259,-1.740067,-4.743275,-13.67347,2.044563,-9.350568,-7.88024,-5.600839,-6.554686,-22.12577,-16.86549,-17.65911,-17.51503,-18.14256
0,453,-12.44801,-4.072421,-8.560175,-9.177324,-13.23753,-5.433931,-2.733426,-5.21833,-12.52516,3.135969,-9.173399,-6.965321,-4.596838,-5.937483,-23.27313,-15.63755,-16.19298,-17.93166,-17.571
0,454,-2.525912,6.28504,2.591999,1.245118,-3.139354,4.576502,6.519338,4.617606,-2.474858,12.93495,1.330717,3.412699,5.931627,4.205192,-12.97545,-6.011135,-5.403559,-7.077802,-6.873234
0,455,9.696581,17.03699,15.00678,13.38087,9.46312,15.13426,18.4439,16.05324,7.065376,21.75683,11.95643,13.74441,16.62215,15.08122,-0.02501121,6.045882,7.024487,3.859962,4.761312
0,456,6.032596,12.65391,11.05601,9.587994,5.9736,10.91886,15.17289,12.1837,3.394342,15.96714,7.904656,8.728971,10.82124,10.34522,-3.511644,1.447374,4.049918,-1.145921,0.3678111
0,457,1.970379,10.27278,7.554429,6.284035,2.012043,8.105552,11.21047,9.038787,0.1353463,12.79465,4.97515,5.337142,7.076012,7.436898,-7.844523,-1.760507,1.438613,-5.100093,-3.069683
0,458,8.619435,17.02667,14.55696,13.17908,8.8598,14.25754,17.98264,15.5716,5.23351,18.44072,10.93294,11.43109,14.373,12.66599,-1.02413,4.067476,8.355862,1.274024,3.415518
0,459,13.95204,24.30209,20.59076,19.78956,14.78701,20.2401,23.65328,21.78913,10.36273,20.91253,17.05417,15.94477,18.77942,16.57923,4.353405,7.512685,12.83957,5.962606,7.690346
0,460,1.616684,12.36841,7.547255,7.221186,2.222906,8.470977,11.35897,9.666002,-1.305112,10.083,4.892989,3.635828,5.865472,4.798073,-8.039477,-3.927456,0.5438662,-5.791305,-4.249729
0,461,-14.27458,-6.25274,-9.527505,-10.67418,-14.66556,-8.620566,-5.911899,-7.908895,-17.26299,-1.887154,-12.19467,-10.39859,-7.180278,-8.703735,-23.66822,-17.47842,-14.6024,-19.09406,-17.85887
0,462,-11.71227,-5.03603,-7.4207,-9.134186,-12.77969,-6.663744,-3.737495,-6.068398,-14.49498,1.645571,-10.05948,-6.959511,-3.263194,-5.000977,-21.88299,-13.7238,-10.73406,-15.25334,-13.85662
0,463,-13.09086,-6.944167,-8.512026,-10.7938,-14.47565,-8.055958,-5.461387,-7.557411,-15.54978,1.17012,-11.09579,-6.834571,-3.064713,-3.59057,-23.90062,-14.03252,-10.50912,-16.33245,-14.23536
0,464,-10.20117,-4.635489,-7.012533,-8.478951,-11.61881,-5.534154,-3.443077,-5.170993,-12.97157,4.302088,-8.81222,-3.663502,0.5517815,-0.2416437,-19.6895,-10.1425,-7.374986,-13.16842,-10.86251
0,465,-9.315253,-4.756546,-6.796317,-8.256722,-10.94233,-4.994731,-2.967764,-4.805768,-11.79546,6.140574,-8.379827,-2.78027,1.350888,0.4187981,-18.33832,-7.643608,-6.561182,-11.89704,-9.471563
0,466,-3.471754,0.6261462,-0.5949318,-2.4124,-5.128506,0.6088029,2.530822,0.9555653,-6.115478,11.1386,-2.323829,3.72673,7.604948,8.378932,-12.80422,-1.388536,0.2222055,-6.364166,-3.324252
0,467,-0.5460602,4.745176,2.559546,0.9113785,-2.234841,4.221736,5.365324,4.26132,-1.867504,13.2841,1.675745,7.054324,10.63931,11.58228,-10.12539,0.2674426,5.09448,-2.661384,0.3720087
0,468,-5.802135,-0.9735428,-3.519266,-4.956794,-7.845544,-1.146531,0.1140295,-1.261455,-6.537378,8.587936,-3.784144,2.106119,6.044899,6.009379,-15.60318,-4.563779,0.3799825,-7.39212,-4.32443
0,469,-14.50614,-11.2139,-13.03187,-14.5447,-16.76612,-10.32997,-9.598382,-10.74277,-14.82943,1.889657,-12.84395,-5.064582,-0.6219213,-1.077327,-23.27625,-11.24772,-8.321017,-15.76073,-12.29508
0,470,-16.58882,-13.12406,-15.53562,-17.27147,-19.54871,-12.34416,-12.58023,-13.19666,-17.8944,2.678282,-15.48261,-6.337572,-0.9556274,-1.322111,-25.6453,-10.93986,-7.793398,-15.05116,-11.55513
0,471,-20.22751,-18.87021,-20.27769,-22.44971,-23.98355,-17.19994,-16.98009,-18.04821,-22.93347,1.091874,-20.66978,-9.390846,-3.177052,-3.397002,-29.63747,-12.64915,-12.16229,-16.89832,-13.98184
0,472,-16.3248,-15.48952,-16.56387,-18.93507,-20.4285,-13.3198,-13.32541,-14.25284,-18.50057,5.106405,-16.54435,-4.830769,1.01059,2.004066,-26.44889,-7.376162,-8.060612,-12.50835,-9.457036
0,473,-2.498208,-0.3021983,-2.11962,-3.979278,-5.839425,1.031721,0.4542626,0.1783501,-4.366778,17.00377,-1.892722,9.040458,15.12306,15.16393,-11.41832,4.875333,7.289114,-0.159461,3.797716
0,474,4.692819,7.037609,5.117713,3.743257,1.925067,7.881045,7.976262,7.467847,2.871147,20.4608,5.408945,14.87831,20.4212,20.35663,-3.685512,9.488265,13.2503,5.507871,9.244949
0,475,-4.45155,-2.610991,-4.67149,-5.875385,-7.342478,-1.271867,-1.665939,-2.078334,-5.204044,12.06815,-3.679368,5.444637,10.03954,11.00966,-12.10691,0.9067357,3.791448,-2.864023,0.4521293
0,476,-6.046323,-4.286932,-6.463663,-7.772639,-9.282419,-2.374688,-2.878455,-3.459632,-5.452213,11.99391,-4.808182,4.660991,9.12474,9.860512,-14.48437,0.4858855,2.902933,-4.379489,-0.6548451
0,477,-7.465711,-6.869089,-8.139622,-9.979174,-11.20759,-4.715299,-4.536271,-5.603199,-7.864442,10.5525,-7.061248,3.504656,8.688489,9.173791,-16.70877,-1.11171,1.556449,-4.670347,-1.382304
0,478,-9.47195,-9.630933,-10.88296,-12.26111,-13.00683,-7.14043,-6.990967,-7.998809,-9.88763,8.079398,-9.439972,1.237821,6.150737,6.851379,-17.58017,-2.941705,-2.05077,-7.189727,-4.125707
0,479,-5.209442,-3.531585,-7.20851,-7.580111,-8.771414,-2.008079,-2.477043,-2.987031,-6.421934,12.93384,-5.245831,5.018936,10.48304,10.50059,-13.46176,2.068035,2.582144,-2.283468,0.6239697
0,480,-1.543396,0.1790493,-3.021479,-3.686287,-4.993664,1.610678,1.427426,0.7460788,-2.815324,15.84637,-1.624611,7.795693,13.00968,12.85049,-9.908633,6.190568,7.212122,1.034836,4.446437
0,481,5.415689,6.952265,3.513259,3.247519,2.125398,8.064917,8.328053,7.443597,4.050344,20.05737,5.143961,13.60154,18.24154,18.91782,-2.613254,11.11938,14.16352,7.737962,10.83737
0,482,-0.03393161,1.514601,-1.687319,-2.07196,-3.313413,2.436291,2.68965,1.931037,-1.25587,12.5409,-0.06114244,7.445423,11.28602,13.25039,-8.425035,5.196202,8.212635,2.707712,5.314156
0,483,0.3599859,1.71959,-1.638814,-1.858099,-3.021712,3.121264,3.266154,2.454944,0.3988988,13.2066,0.7679133,8.271984,11.72511,13.7471,-8.239478,6.243285,8.600704,2.718487,5.621267
0,484,1.462544,3.111972,-0.2252244,-0.3324386,-1.545118,4.008683,4.381615,3.567975,0.9825569,12.57237,1.690132,8.42261,12.09184,13.29161,-6.470317,6.624735,11.07069,3.112904,6.636314
0,485,-5.766996,-4.124457,-7.766659,-7.855516,-9.032511,-3.072238,-2.663006,-3.660599,-5.99469,6.73019,-5.617929,1.906504,6.332688,6.191192,-13.98699,-0.2520559,4.948995,-3.850065,0.01765887
0,486,-5.919152,-4.09527,-7.728038,-8.002771,-9.18468,-3.114368,-3.496708,-4.040764,-6.028968,7.926055,-5.605136,2.368814,7.052049,6.386674,-13.46877,-0.3866712,4.180844,-2.771095,0.3610946
0,487,-6.957955,-6.046632,-8.321365,-9.13061,-10.14751,-4.571523,-5.100024,-5.468212,-6.530384,5.937769,-6.389654,1.715883,6.067262,5.744229,-14.25463,-0.7278871,2.982941,-3.950054,-0.582635
0,488,-8.852217,-8.240317,-10.79865,-11.70108,-12.70824,-6.583991,-6.226927,-7.392795,-8.623916,4.840021,-8.804846,-0.1502313,4.836288,3.567524,-17.86464,-2.320195,1.492946,-5.134058,-1.924514
0,489,-11.61522,-12.78756,-15.20863,-15.93478,-16.13684,-10.73748,-8.932013,-11.20863,-13.47647,2.701736,-13.73858,-3.905271,1.960794,0.3800834,-21.03186,-4.692318,-1.394545,-7.035903,-4.177095
0,490,-8.498764,-9.957874,-10.8628,-12.5092,-12.75562,-7.762088,-6.383227,-8.32474,-10.81508,7.082545,-10.47685,-0.3516967,5.109771,5.168759,-17.14297,-1.679663,2.255094,-3.899681,-0.8533128
0,491,-6.609287,-7.997371,-8.710391,-10.37375,-10.66128,-5.543664,-4.678245,-6.232151,-8.303775,9.337845,-8.076579,2.047615,7.006786,8.133215,-14.77638,0.9486878,4.87737,-2.743029,1.036599
0,492,-9.640966,-10.81416,-11.81873,-13.26187,-13.66605,-8.581143,-7.828704,-9.082229,-12.19839,5.624416,-11.31405,-1.16337,3.937058,5.556744,-17.98642,-0.9053257,1.826868,-5.92817,-1.855526
0,493,6.603143,5.642548,3.529013,3.133482,2.919399,6.992352,8.427138,6.994062,2.975039,17.61416,4.220035,12.94489,17.98751,19.15369,-1.12174,13.30418,17.09772,9.845691,13.36049
0,494,9.478896,8.347278,6.365959,6.187307,6.070912,9.21794,11.47201,9.640805,5.58141,17.12878,6.912774,14.73078,19.8192,19.79408,1.806111,13.48094,17.58438,12.38219,14.77141
0,495,9.365179,9.270674,6.330708,6.525292,6.085405,9.798723,11.75507,10.08951,6.285635,16.49241,7.396525,14.00963,18.44867,18.82794,1.569529,13.25381,18.3786,12.00157,14.66532
0,496,18.40237,19.59451,15.38239,16.56454,15.79523,19.1449,21.01084,19.79074,15.20995,21.54996,16.89003,21.55191,25.35945,26.04841,11.15326,21.05213,26.75004,19.64832,22.40671
0,497,17.40883,17.17818,13.96146,14.92578,14.62999,16.9641,20.78618,18.17636,13.40532,18.32977,14.70475,18.39712,21.56232,23.13811,9.47191,18.45501,25.70067,17.97284,20.63559
0,498,0.528612,1.586275,-1.602863,-1.25069,-2.115813,1.275574,3.303897,1.777829,-2.243133,4.600418,-0.8582416,3.445304,7.091538,7.491155,-6.815266,3.033807,10.68667,2.041619,5.204063
0,499,-9.585492,-9.601214,-12.93468,-12.31333,-12.67137,-9.42617,-7.565001,-8.945378,-13.66847,-3.496515,-12.0914,-5.300873,0.1247566,-1.411077,-16.69246,-4.505963,-0.3692091,-7.161035,-4.053341
0,500,-12.31547,-12.83163,-16.80359,-15.93507,-16.01103,-12.39444,-11.46512,-12.26761,-16.70782,-5.097872,-15.2444,-7.377483,-1.886937,-1.978831,-19.36166,-5.285969,-2.173111,-7.630306,-4.865537
0,501,-11.55037,-13.33562,-16.32501,-15.79938,-15.42958,-12.1655,-11.5568,-12.16529,-16.00338,-3.168112,-14.6716,-5.389852,-0.09602658,1.69106,-18.08181,-4.193552,-1.365821,-6.479631,-3.691357
0,502,-9.739573,-13.42769,-16.71774,-15.75268,-14.72479,-11.51359,-8.211152,-10.7783,-16.16106,-1.197458,-15.08394,-4.603012,1.28754,3.764648,-19.01653,-1.636438,-0.3946126,-5.033249,-2.243051
0,503,-9.192272,-13.54518,-16.96211,-15.80522,-14.48805,-11.35528,-8.096005,-10.59237,-16.27179,0.08811028,-15.05552,-3.066388,3.660363,5.737658,-18.57707,-0.3478948,-0.6538885,-3.908212,-1.388133
0,504,-6.079193,-10.56896,-13.20263,-12.67986,-11.36489,-8.126859,-5.937927,-7.755208,-13.32762,5.576798,-11.82703,0.8805358,7.535171,10.63844,-14.56979,4.396694,3.764603,0.1582041,3.013458
0,505,-6.013469,-10.53409,-13.05248,-12.48165,-11.17163,-8.075895,-6.506363,-7.737296,-13.15535,5.215476,-11.48592,1.98942,9.353435,11.47439,-13.95725,5.405565,4.894139,0.05767475,3.649481
0,506,-3.157205,-7.811644,-11.41208,-10.24102,-8.803863,-4.955279,-3.238827,-4.776161,-8.692011,7.65691,-8.226982,5.429798,12.52917,15.03942,-12.05294,7.967212,9.448554,2.941513,7.008039
0,507,2.39507,-2.245418,-6.147656,-4.617805,-2.978212,0.5047133,2.329502,0.7352492,-3.732767,13.75655,-3.08822,10.79286,18.19321,20.38718,-5.505589,12.97027,15.18755,7.70716,12.09996
0,508,-1.56898,-5.966113,-10.30102,-8.506248,-6.863653,-3.863457,-2.105887,-3.43448,-9.368325,9.134664,-7.77364,6.528815,15.12503,15.55056,-9.049148,9.126803,10.14942,4.492467,8.265658
0,509,14.13533,10.85992,5.139163,7.890423,9.187463,12.26135,13.91168,12.95202,6.972947,20.66646,8.680719,20.93068,28.23837,30.68551,6.461309,23.73877,26.85334,19.06177,23.35171
0,510,16.96951,13.16257,9.297127,11.27195,12.52412,14.55041,17.19493,15.75927,9.077284,21.95419,11.36348,23.02909,30.21312,32.3386,9.347496,25.4919,28.31518,20.26198,24.69188
0,511,5.505016,1.195861,-3.004717,-0.9817559,0.4828438,2.92997,5.794752,4.087252,-3.575197,12.94518,-1.059928,11.60997,18.9234,22.50508,-2.818912,15.70906,16.87094,9.744525,14.02209
0,512,7.207171,2.594439,-2.254784,0.1569828,1.962105,4.509065,7.265686,5.42917,-1.604771,15.38883,0.2726874,13.01136,20.0605,24.37035,-0.5963975,17.28076,20.17187,12.02296,16.47809
0,513,9.856119,6.204071,1.455196,3.528997,4.830928,7.692214,10.28749,8.68102,0.604813,18.61472,3.322877,15.97962,23.31291,27.66395,1.767039,19.99315,24.3245,14.03384,19.28261
0,514,1.471319,-3.291794,-8.332917,-5.693138,-3.796335,-1.429535,1.551465,-0.2950787,-8.455677,9.627673,-5.998994,7.071996,14.11608,20.00147,-6.305373,11.95112,15.78182,5.726294,10.9556
0,515,-9.032946,-14.9986,-20.62302,-17.57069,-14.99101,-12.39338,-10.09473,-11.65201,-19.55221,2.125966,-17.49364,-2.040489,5.865544,11.99379,-16.28214,3.878311,5.580956,-2.935792,2.116179
0,516,-3.74231,-7.535549,-14.42493,-11.31111,-9.582187,-5.56011,-4.905084,-5.261893,-14.15386,10.09342,-11.0666,4.840599,13.15594,19.61641,-11.11473,10.58763,12.3644,2.815078,8.397596
0,517,-0.141241,-5.31067,-11.15451,-8.316312,-6.107632,-2.414648,-1.547364,-2.191203,-9.69542,13.85055,-7.52934,8.558137,15.93476,24.12587,-7.251459,14.5456,16.22217,6.057207,11.97847
0,518,0.09411681,-6.999772,-11.22876,-8.967912,-6.19093,-3.417092,-1.369278,-2.773763,-11.04694,14.40072,-8.682947,8.683253,16.66876,25.07296,-7.353004,15.79564,16.74214,5.987835,12.444
0,519,3.131974,-3.392009,-8.44759,-5.758713,-3.09073,-0.3065026,1.539265,0.4426709,-9.389523,17.7697,-6.059752,11.50753,19.80514,28.47759,-4.227787,18.94022,17.55706,9.475068,14.99613
0,520,6.952017,-0.05770999,-5.989715,-2.277091,0.8195385,3.003632,5.721203,4.12502,-5.681055,19.19778,-2.847909,14.62218,23.42785,30.56828,-0.118491,21.99741,21.22258,11.98667,17.94774
0,521,2.282008,-5.235137,-9.857057,-6.825777,-3.77,-2.032365,0.3445528,-0.8091286,-10.77967,14.24558,-7.345187,11.14032,20.51256,27.56287,-4.640073,17.88768,17.02295,7.37523,13.73922
0,522,0.05048955,-8.053117,-12.46167,-9.497142,-6.190128,-4.797379,-2.305491,-3.506483,-13.85726,12.32856,-10.21234,9.362987,19.66378,26.10102,-6.623789,15.92008,16.59782,5.51477,12.44575
0,523,11.38646,4.216794,-1.487208,2.106982,5.287013,6.656242,9.78662,8.111411,-3.213871,22.63269,0.6512561,18.61654,28.5357,34.91505,4.667347,25.42611,27.25671,16.83392,23.00432
0,524,18.90558,12.25238,6.832979,10.24859,13.11584,14.12324,17.42567,15.83994,3.784573,28.16589,8.282009,25.00568,34.63524,40.75018,12.02074,32.47176,33.15981,24.28102,29.80846
0,525,15.74783,9.500823,4.488065,7.740213,10.32261,10.99739,14.66622,13.02508,0.424914,23.01108,5.382398,20.85126,29.89984,36.55407,8.657775,28.6292,29.58247,20.16459,25.80901
0,526,13.90135,8.014895,1.945868,5.894776,8.537629,9.275902,13.48489,11.4635,-1.887764,21.0482,3.148509,18.161,26.97015,34.16026,6.734958,25.8365,26.88503,17.59305,23.01873
0,527,4.054952,-2.201462,-7.75843,-4.273831,-1.533872,-0.7135398,3.209838,1.251707,-11.83745,12.96426,-6.903749,9.163435,18.84425,24.60246,-2.949829,16.89295,17.87026,8.718752,14.22049
0,528,-7.958231,-15.0255,-21.84192,-17.45305,-14.11482,-12.66585,-9.210013,-11.10106,-23.02138,3.008523,-19.24757,-1.747382,7.934935,14.53617,-14.73989,6.627395,6.424608,-2.727119,3.062758
0,529,-0.6244551,-7.761658,-14.31998,-9.99035,-6.645394,-5.228907,-2.344748,-3.763911,-15.22439,10.5196,-11.38208,6.919542,16.71999,23.83954,-6.925016,13.71344,14.52782,4.22542,10.51171
0,530,2.958472,-3.802345,-11.02645,-6.367639,-3.131628,-1.524049,1.747215,0.08486709,-11.68424,13.26562,-7.832363,10.1345,19.98373,27.28859,-3.837076,16.72004,19.94274,7.294259,14.2651
0,531,-7.990015,-14.96423,-21.66469,-17.46209,-14.26285,-12.08858,-9.98513,-10.98374,-21.37926,4.17179,-18.10992,0.6290352,10.6088,17.036,-14.60839,8.334531,8.526583,-2.519803,4.340246
0,532,-6.666853,-16.14156,-21.43265,-17.96744,-13.95816,-12.24433,-8.701716,-11.00037,-20.9401,7.334999,-18.39724,2.944436,14.62568,19.04827,-14.44647,9.908207,10.51883,0.2141394,6.876467
0,533,-5.768672,-14.63329,-21.70937,-17.41734,-13.345,-10.86983,-8.144816,-10.01953,-19.89194,9.663314,-17.62074,4.012112,15.76962,20.75698,-13.15634,11.89069,13.40574,2.090699,9.088688
0,534,-0.1257981,-8.998173,-16.14052,-11.50423,-7.316659,-5.076777,-2.576313,-4.24056,-13.63488,14.80453,-11.66236,9.683576,21.1176,25.94953,-6.630521,17.61918,18.24473,6.606765,13.89318
0,535,11.17312,2.746176,-4.593322,0.1482042,4.118454,5.763331,10.06235,7.325881,-3.842937,23.59359,-1.115464,19.4211,31.86102,34.30803,3.592163,26.21181,29.07386,16.86781,23.92686
0,536,10.08374,1.166343,-5.87523,-0.7408797,3.67396,4.053583,9.083853,5.869716,-4.914012,20.15761,-2.596948,16.30915,27.68656,30.59241,4.07778,22.5306,26.32298,14.41012,20.97228
0,537,9.824556,0.7584461,-5.968634,-0.9985634,3.383652,3.65262,8.574127,5.471156,-5.048101,18.71192,-2.8929,14.98381,25.72019,28.93497,3.697448,23.57113,25.55465,14.76787,21.04873
0,538,18.02348,9.938571,3.12069,7.677088,11.52926,12.07535,16.76765,13.84699,3.19199,25.57444,5.754702,22.27728,32.63973,35.85391,11.14509,30.87597,33.69665,24.45775,29.75536
0,539,15.07367,7.015299,-0.5252332,4.669787,8.576936,8.708521,14.44959,11.09063,-1.77684,21.22073,1.767027,18.35048,29.1971,32.89698,7.619924,27.63992,30.51849,20.4524,26.0878
0,540,10.48555,1.633162,-6.25115,-0.5324436,3.955947,3.393727,9.291806,5.805475,-7.142621,16.27136,-3.761799,12.95726,23.62762,28.22873,4.11096,22.47818,25.7936,16.26057,21.54224
0,541,5.52425,-3.661017,-11.35106,-5.639712,-1.042593,-1.71852,4.024685,0.6983191,-12.11433,11.0867,-8.664079,8.258161,18.40881,24.88819,-0.755175,17.31895,21.13812,11.28164,16.6528
0,542,-11.67524,-21.74614,-29.9773,-24.24633,-19.18914,-18.89555,-13.69551,-17.11012,-28.84297,-1.590563,-26.45208,-7.049195,4.450824,9.075111,-18.278,2.803351,4.844089,-3.699202,1.549598
0,543,-4.217103,-14.57542,-22.84381,-17.06019,-11.78664,-10.7838,-6.540749,-9.556124,-19.88471,9.369362,-18.38485,2.452703,13.93132,18.89048,-10.02817,11.95034,13.41332,3.257417,9.505144
0,544,-6.153637,-15.97897,-24.28462,-18.66844,-13.72696,-11.89089,-9.147753,-11.12959,-19.99054,8.016726,-18.85895,2.389036,13.53191,19.06768,-11.93418,11.48258,12.49816,1.70713,8.469751
0,545,-7.819038,-18.98017,-27.20689,-21.42369,-15.86112,-14.26704,-11.2157,-13.61976,-20.89332,6.271029,-20.8895,1.660354,13.38935,18.20534,-13.49939,8.987955,12.62603,0.5913761,7.656281
0,546,-10.32087,-22.72745,-30.42119,-24.65272,-18.48506,-17.44593,-13.66645,-16.72279,-24.13221,5.397906,-24.45711,-0.7998865,11.52712,15.57351,-15.44842,6.566121,9.57816,-2.267559,4.856565
0,547,-11.14602,-24.07034,-31.14127,-25.74451,-19.4591,-18.33634,-14.18353,-17.61646,-25.16296,6.059536,-25.63947,-1.747124,10.37983,15.17275,-16.51556,6.796224,9.751113,-3.454579,4.334072
0,548,-12.06587,-25.08314,-34.08304,-27.57517,-20.95087,-19.19882,-14.97015,-18.61869,-26.2138,6.33007,-27.18598,-2.256829,10.43084,14.90045,-17.9089,6.238746,7.898721,-3.511755,3.630922
0,549,-6.875122,-20.20337,-27.68597,-22.243,-15.79369,-14.12314,-10.55365,-13.7161,-20.85163,12.17679,-21.58326,3.981139,17.10788,20.74003,-12.69485,12.69889,13.46826,2.685941,9.845608
0,550,-1.10209,-13.38223,-22.26065,-15.95022,-9.596052,-7.802457,-5.355942,-7.692981,-13.87949,16.66024,-14.93299,10.00118,22.93534,26.0894,-5.541171,17.35143,19.89815,8.361124,15.56365
0,551,1.754313,-11.0181,-18.97888,-13.34409,-6.929026,-5.197548,-2.52154,-5.184021,-10.85938,20.32194,-12.21481,12.87224,25.96501,28.41736,-2.92437,20.23934,23.20115,11.90445,18.95154
0,552,9.426272,-2.624695,-11.06728,-4.994746,1.189563,2.348119,5.500333,2.808579,-3.77036,24.70967,-4.43449,19.44938,32.38434,34.85814,4.793212,25.54376,30.14579,18.61081,25.3818
0,553,-0.8273617,-13.55545,-20.88611,-15.26602,-8.88574,-8.435591,-4.790232,-7.830646,-14.35928,13.98078,-15.11454,8.286649,21.09771,22.82881,-5.053139,15.28039,18.63643,8.200993,14.62066
0,554,-10.73065,-24.80073,-32.75485,-26.8853,-19.78094,-18.59995,-15.49885,-18.62045,-23.86426,8.313312,-25.77103,0.2359646,13.80031,15.54748,-14.97553,7.281621,9.264749,0.5810949,6.57595
0,555,0.4427696,-14.66903,-21.02398,-15.94334,-8.70586,-7.957372,-4.801214,-7.949906,-11.94829,18.28307,-14.25624,11.77586,24.75785,27.50451,-4.045879,18.29316,20.78572,12.0354,18.06065
0,556,-1.862054,-17.1328,-23.0253,-18.14222,-10.88592,-10.66151,-7.048651,-10.41836,-15.11713,15.44884,-17.00308,9.129971,22.86602,23.7455,-6.313033,15.59011,16.78938,9.763372,15.18925
0,557,3.195988,-11.95384,-18.30874,-12.98923,-5.562336,-5.612797,-2.42877,-5.455545,-10.31883,20.56489,-12.09273,13.89201,27.37179,28.9466,-0.06812584,20.51805,21.88598,14.62618,20.10872
0,558,-1.089495,-15.64201,-22.63512,-17.49557,-10.25416,-9.517664,-6.53931,-9.689742,-14.62351,18.39487,-16.41123,9.705951,23.16282,25.63903,-4.861031,15.6619,20.10184,11.67944,17.16099
0,559,2.518108,-11.33015,-18.83258,-13.63874,-6.769671,-4.897229,-2.333448,-5.380762,-8.607224,22.46803,-11.45122,14.75386,28.46758,28.97751,-2.151249,19.99475,24.85001,14.75221,21.02905
0,560,7.407532,-6.461726,-14.68251,-8.716889,-1.610441,0.06924322,2.161382,-0.4719376,-3.146041,26.50694,-6.335285,19.96288,33.51741,34.27103,3.822578,24.90374,30.02686,18.77019,25.58948
0,561,9.420093,-5.749753,-13.27387,-7.272603,0.3663563,1.338298,4.163828,0.9484688,-0.6400467,27.37969,-4.656871,21.74532,35.04856,35.52196,6.037129,25.83063,30.36275,20.36998,26.67706
0,562,8.882805,-7.652801,-13.21369,-8.10854,-0.1889015,-0.5640061,4.264109,-0.2147812,-3.601882,25.77072,-6.807925,19.18712,32.57023,33.2546,4.826078,24.37152,28.24482,19.37034,25.16383
0,563,11.22167,-5.551847,-10.36339,-5.351694,2.746716,1.414555,6.61446,1.992112,-1.926698,27.53683,-4.904511,20.70675,34.46698,33.6944,8.566735,26.55362,31.17975,20.20279,26.87919
0,564,7.324097,-8.171614,-13.67914,-8.542208,-0.9615913,-1.782516,2.847578,-1.36077,-4.41752,21.76192,-7.577498,16.56069,29.50639,29.33105,4.409656,21.22062,28.64793,16.41995,23.13153
0,565,-1.572063,-17.61169,-22.90117,-18.00134,-10.14663,-10.79643,-6.360726,-10.71411,-12.90944,14.86303,-16.64873,8.092816,20.94235,20.97071,-4.254498,12.23095,19.41403,8.645899,14.71044
0,566,-12.48749,-29.44814,-34.41416,-29.97248,-21.95343,-21.32215,-17.63144,-21.81192,-22.43624,7.982319,-27.23256,-0.01192735,13.58256,13.06609,-16.27773,4.998237,9.762317,-0.99234,5.744375
0,567,-23.70251,-40.80595,-46.57156,-42.14201,-33.96062,-31.73018,-29.77703,-33.18482,-32.6529,2.764822,-38.17688,-8.304061,5.935861,5.826232,-27.41584,-2.691324,0.1899168,-10.0211,-2.999593
0,568,-15.35985,-33.4703,-39.14001,-34.53246,-25.8969,-23.76193,-21.74678,-25.27186,-24.28856,12.23926,-30.24942,1.191635,16.11539,15.40337,-18.92576,6.391184,8.153768,-1.620137,5.519413
0,569,-7.927423,-26.30651,-31.89793,-26.98806,-17.98546,-16.30569,-15.02122,-18.1694,-15.20822,19.27766,-22.15767,8.847001,22.88774,22.62263,-9.519905,12.27107,15.32764,5.315938,12.3234
0,570,5.979441,-11.57438,-18.3014,-12.54974,-3.706701,-1.968699,-0.2605439,-3.565106,-1.157951,31.44108,-8.112205,21.68471,35.38378,35.20425,4.483065,25.8258,30.58455,17.23244,25.43419
0,571,-1.271564,-18.68617,-25.14352,-19.66794,-11.00323,-9.388317,-7.023477,-10.68018,-9.531803,23.99361,-15.76999,14.05274,28.15222,27.98942,-3.468237,18.15536,24.05135,9.690801,18.17274
0,572,-2.835912,-19.90936,-27.30313,-21.49416,-12.91921,-10.3318,-8.501335,-11.98045,-9.579755,23.26587,-16.66794,13.54862,27.69704,27.21063,-5.596374,17.35893,23.91658,8.556304,17.45944
0,573,1.662164,-14.80639,-22.54578,-16.5217,-8.215508,-5.386473,-4.276099,-7.135296,-3.923781,26.07135,-11.20905,18.28114,31.93429,31.64528,-0.9977306,22.17046,28.77993,12.85146,22.02928
0,574,-4.19429,-21.22112,-26.60303,-22.00948,-13.8107,-11.69702,-10.11741,-13.26008,-10.92298,21.2757,-17.42859,11.97597,25.67054,25.21761,-6.721272,16.5679,22.113,6.84865,15.89566
0,575,-10.2127,-27.60054,-33.43065,-28.67218,-20.26575,-17.43642,-16.11873,-19.39312,-15.62296,16.88746,-23.27617,6.527429,19.96365,19.52016,-13.05967,11.67305,16.45801,1.522772,10.55662
0,576,-6.837912,-23.48354,-31.86931,-25.66696,-17.12583,-13.62117,-13.5182,-15.90695,-12.51776,20.91208,-20.05535,10.39485,23.9065,24.95485,-8.98275,16.12176,20.93518,5.897344,15.00462
0,577,10.06959,-7.106624,-14.70236,-8.506653,0.1924395,2.628296,3.125447,0.7279822,4.337642,34.54181,-3.070111,26.82701,40.05658,41.40487,8.508122,31.41634,37.82663,21.7066,31.0813
0,578,9.765188,-7.620361,-15.21416,-8.670122,0.0583071,1.462374,3.159679,0.3211237,2.464944,30.05181,-4.08931,24.81155,37.96348,39.66201,7.619298,29.30857,35.58041,20.77164,29.43969
0,579,9.184906,-8.526858,-16.42052,-9.537643,-0.6427293,0.3665493,3.111689,-0.3749184,0.9779994,27.77646,-5.480715,22.81306,35.85552,38.04593,6.522985,28.1557,35.73932,19.70658,28.65928
0,580,9.196581,-8.57007,-15.64058,-9.405456,-0.7506271,0.7395818,2.899638,-0.2589611,2.464061,28.04702,-4.515649,23.84737,36.68906,38.37425,5.976689,29.4355,35.7528,20.19719,29.22423
0,581,6.208691,-11.39055,-18.03147,-11.91676,-3.23745,-2.494717,-1.10141,-3.538402,-1.266879,24.36017,-7.570143,20.32817,32.96022,35.18024,4.656512,26.4239,32.97345,17.46324,26.444
0,582,0.09224999,-17.47468,-24.43408,-18.41936,-9.556745,-8.334497,-7.21575,-9.842843,-7.387765,21.83163,-14.11588,14.0559,26.54499,29.17437,-0.8367568,20.83624,28.07508,12.20394,21.18422
0,583,2.419476,-15.48632,-22.43124,-16.48302,-7.477962,-6.215608,-5.083794,-7.782727,-5.441462,24.95608,-12.10929,16.56955,29.02062,32.59208,1.343249,23.05984,30.41526,15.23095,23.87672
0,584,5.343123,-13.15413,-19.32481,-13.56549,-4.393232,-3.824868,-2.846286,-5.217587,-3.34414,27.40187,-9.484849,20.21153,33.59303,35.94741,4.879276,26.65951,32.63349,18.03925,26.79818
0,585,15.22801,-1.312246,-7.841522,-2.203586,6.074802,7.183118,6.840341,5.682038,7.075093,36.14691,1.945375,30.46498,43.21226,46.74507,14.94619,36.62094,43.57049,27.45483,36.75079
0,586,14.79016,-1.347265,-9.021317,-2.446561,5.862991,6.980213,7.773082,5.807421,7.321352,33.72991,1.561788,28.74786,40.96537,44.01988,14.06805,34.27679,41.94604,25.04915,34.38627
0,587,8.210238,-9.241514,-16.03889,-9.647462,-0.8686729,-0.3018057,1.127828,-1.362275,0.9186994,26.72221,-5.576082,21.91347,34.32513,36.32565,7.564068,28.36349,35.09231,18.28127,27.79566
0,588,-0.6950592,-18.50676,-23.81809,-18.50637,-9.810146,-8.776538,-8.669671,-10.44377,-6.463819,20.67164,-13.47865,15.12436,27.53756,29.39769,-0.7796876,21.44544,27.5288,10.08282,20.21258
0,589,-2.241663,-19.60419,-24.38164,-19.89213,-11.62311,-9.811192,-10.09626,-11.73183,-7.695596,20.92365,-14.55639,14.07958,26.35828,28.73133,-3.234726,21.08047,27.47401,9.444727,19.8285
0,590,-2.302039,-20.014,-25.43239,-20.24689,-11.61055,-10.0866,-10.34308,-11.97805,-7.671321,20.53611,-14.87914,14.43114,27.23187,28.76579,-2.531691,20.67854,27.57757,8.753963,19.49326
0,591,-1.915216,-19.18742,-24.44111,-19.56292,-11.08288,-9.378293,-10.67971,-11.60968,-7.181012,22.45524,-14.08375,15.8003,28.99227,30.06987,-1.314715,21.62041,28.63339,9.877668,20.65944
0,592,3.152591,-14.28855,-19.35901,-14.58794,-6.03596,-4.439787,-5.336612,-6.612779,-2.171641,27.5219,-9.217159,20.45182,33.47542,35.08403,3.750415,26.15565,35.619,14.52777,25.99353
0,593,16.79341,0.01064968,-6.055324,-0.5482308,7.90574,9.30884,9.268111,7.471156,11.90156,38.46497,4.631269,33.11339,46.00051,46.97901,17.22341,37.01505,49.98351,26.57327,38.42041
0,594,16.05964,-0.5026124,-6.903967,-1.025043,7.396192,8.251959,9.091607,6.870244,10.10783,35.62637,3.34761,30.80396,43.65657,44.17049,16.26942,35.14113,47.27587,25.2047,36.40857
0,595,7.415729,-10.00403,-15.99566,-10.38953,-1.728379,-0.7569067,-0.1160324,-2.289007,1.417161,28.01395,-5.588509,23.00071,36.20245,36.62581,7.191497,27.73026,37.69636,17.971,28.53232
0,596,-0.1222209,-19.09907,-24.38214,-18.96138,-9.659681,-8.837577,-7.721984,-10.44868,-6.46945,23.19753,-14.07266,16.21622,29.91447,30.37572,-0.154395,21.67598,30.89342,10.27055,21.51123
0,597,0.03584874,-19.10428,-24.11537,-19.06557,-9.786427,-8.416314,-8.421733,-10.43698,-6.105111,25.76096,-13.68435,17.99487,32.18024,32.76137,0.1837297,24.4464,32.55531,11.53195,23.34806
0,598,13.59754,-4.816515,-10.23823,-5.185205,3.762554,5.861107,4.425395,3.370911,9.299247,39.04268,1.193584,32.80742,46.95095,46.68616,13.86878,39.13578,46.92235,26.04137,37.94859
0,599,4.043095,-15.39779,-21.45771,-15.90188,-6.354095,-4.309197,-5.313339,-6.836974,-0.7744333,30.71024,-9.390271,23.89983,39.11828,37.83181,4.236996,29.65537,37.59036,17.29108,29.00137
0,600,-2.513911,-22.59834,-27.42343,-22.48844,-12.88975,-11.13657,-11.79051,-13.46469,-8.188192,25.23365,-16.19303,17.93966,33.09121,33.41393,-2.538997,23.32283,31.06886,9.988874,22.16631
0,601,-2.892305,-23.57826,-28.2418,-23.50353,-13.78873,-11.75233,-12.42404,-14.09565,-9.179151,26.08417,-16.96289,18.48133,33.95773,35.50241,-3.712079,24.10551,31.57471,10.4356,22.80814
0,602,-1.663724,-21.92143,-26.90977,-22.46323,-12.95362,-9.618627,-12.11614,-12.82953,-5.932054,30.15497,-14.64375,21.64883,37.38197,37.69357,-2.404175,28.21742,33.81996,13.73879,26.0822
0,603,10.53802,-10.55744,-15.34814,-10.5443,-0.7038694,1.930107,-0.2221906,-0.9810823,6.106153,39.59845,-2.797642,32.82483,47.77904,49.50455,9.962914,40.77088,45.4404,25.49227,37.90738
0,604,17.97117,-3.136718,-7.587197,-2.743898,7.08563,8.868387,7.581998,6.443177,12.7784,44.43025,4.316719,39.24059,54.48588,55.4412,17.5659,46.52713,53.74463,31.68626,44.6522
0,605,23.65024,3.783937,-1.08221,3.983183,13.49105,14.4979,12.51891,12.13213,18.0616,46.85333,10.40139,43.43484,58.32163,58.89447,24.73399,49.84881,59.04595,37.87137,49.96294
0,606,20.71004,0.7984101,-4.143569,1.119997,10.70092,11.24569,10.09649,9.13506,15.18685,41.80434,7.224618,38.95518,53.44463,53.47486,21.70707,45.37035,55.40409,34.455,46.15582
0,607,20.14405,-0.007519931,-3.564394,0.94986,10.38849,10.98866,10.43179,8.888446,16.38389,41.22594,7.554805,38.55235,52.32054,51.90241,20.70397,43.9031,54.66849,32.27973,44.48772
0,608,20.72575,1.872073,-2.416913,2.335036,11.36917,12.19763,11.34516,10.03355,17.25393,41.34973,8.655571,38.51235,52.2307,50.59713,21.61487,43.69027,54.46809,32.60833,44.43953
0,609,23.83195,5.363208,0.7453959,5.772749,14.72369,15.46286,15.18058,13.42755,21.09108,42.64072,12.03075,40.0658,52.6382,51.71108,24.60997,45.16376,57.09126,34.84732,46.45788
0,610,18.57536,1.129802,-3.176239,1.772148,10.27336,10.89374,10.16059,8.930219,16.34233,36.19889,7.713861,34.04416,45.45208,45.6533,20.13907,39.99039,51.6081,27.80022,40.08883
0,611,8.63171,-9.130879,-13.95621,-8.720264,0.04335349,0.8062341,0.5000203,-1.246381,6.747611,27.00322,-2.562064,24.35392,36.4155,34.87935,9.982393,29.25368,41.08507,18.27176,30.04949
0,612,13.77299,-4.819214,-9.125756,-3.527112,5.702168,4.73658,5.284814,3.291277,10.10789,29.05765,1.493783,27.93138,40.13788,38.22859,16.34458,32.6997,43.43916,22.54313,33.53072
0,613,21.64833,4.711324,-0.7610048,5.30653,13.98347,13.17697,13.33925,11.80398,18.22331,34.12588,10.03699,34.47827,46.13581,44.69226,24.44588,39.46182,54.25831,30.01383,41.80258
0,614,8.65693,-7.629222,-13.38846,-7.390662,1.060097,0.8787582,0.651485,-0.7568477,6.025648,22.79229,-2.34966,22.25891,33.90822,32.49244,11.5313,26.36854,42.94863,16.57729,29.08868
0,615,2.51888,-14.40161,-19.52784,-14.11597,-5.584455,-5.243239,-5.044302,-6.985871,-0.2042042,19.38678,-8.861306,16.76669,28.69518,27.51028,4.403381,21.65649,38.00115,10.71576,23.76751
0,616,9.659845,-6.730743,-12.50915,-6.704889,1.592043,2.498528,2.744162,0.7301337,8.70779,25.14089,-0.7871575,24.14665,35.89229,33.34064,10.80757,28.73644,44.62889,17.04557,30.27809
0,617,9.395723,-7.688527,-11.61622,-6.714086,1.691747,1.731497,2.243797,0.09869441,7.779076,25.3528,-1.321511,23.70806,35.57898,32.3012,11.26472,28.38261,42.61247,16.41079,29.28501
0,618,12.74496,-4.167636,-8.286625,-3.150106,5.26607,4.917706,5.481848,3.356293,11.64844,26.48326,2.294343,26.46412,38.12036,34.28833,15.01814,30.13492,45.96738,19.64916,32.26166
0,619,14.69606,-2.683977,-6.479641,-1.252834,7.408771,6.349079,7.626007,5.06769,12.87764,27.41099,3.637371,27.2266,38.52298,35.19436,17.34538,31.14742,46.98824,20.9626,33.34109
0,620,12.65477,-4.089013,-8.081886,-2.691751,5.685096,4.781334,5.820888,3.55193,11.23774,24.41732,2.106412,24.60378,35.25867,32.14828,15.29857,29.92803,43.74937,18.18324,30.59556
0,621,2.059757,-14.06808,-18.74936,-13.33715,-5.22227,-4.994047,-4.905918,-6.669343,1.711036,15.97414,-7.766202,15.75772,27.03951,23.06973,4.280977,21.02136,35.11526,8.226287,21.36275
0,622,-1.903818,-19.21294,-22.16079,-17.83036,-9.497495,-8.900937,-9.136417,-11.03042,-0.4284728,14.68398,-11.10568,13.60724,24.64476,21.02121,0.2222987,18.17497,33.18163,4.414065,18.46441
0,623,5.639333,-12.39284,-15.66292,-11.09378,-2.295129,-1.324272,-2.351186,-4.010523,8.549059,23.98527,-3.402385,22.20538,33.02659,29.77951,8.516035,26.5983,41.94059,12.92519,27.13335
0,624,11.14277,-5.465245,-9.448202,-4.918687,3.227195,5.225183,3.328617,2.333922,14.39361,30.52439,3.048959,28.5981,39.29132,36.93339,13.37476,32.78928,48.31493,18.57308,33.09762
0,625,13.29998,-2.680405,-6.977835,-2.228357,5.631067,7.668406,5.484792,4.864802,17.26403,30.89341,5.97647,31.50776,42.88794,38.37327,15.43517,34.46743,49.98212,20.2188,34.82676
0,626,21.45678,4.883554,1.829237,6.25166,14.22487,15.44708,13.33608,12.85217,25.53111,37.31303,14.31576,39.13754,49.65532,46.32473,24.28445,42.58783,57.40115,27.31744,42.18596
0,627,13.32311,-4.200917,-7.826588,-2.799127,5.670337,7.005126,6.081891,4.586312,17.50223,29.70489,5.395631,30.78366,41.40816,37.92718,15.37273,34.48175,48.69238,18.37115,33.41273
0,628,3.753916,-13.65237,-18.15897,-12.88291,-4.530649,-1.935933,-3.523661,-4.669301,8.828585,21.90461,-3.708234,23.01075,33.94059,31.08119,4.626221,27.269,40.90285,9.443604,25.27489
0,629,-11.01925,-29.90849,-33.33315,-28.98968,-20.25661,-17.03401,-19.42999,-20.307,-6.332149,11.93393,-19.06901,10.37715,21.83638,20.36812,-10.62027,15.97137,27.24528,-2.766159,13.03467
0,630,-10.35081,-28.81695,-33.58741,-29.07303,-20.53886,-16.06274,-20.66837,-19.96214,-6.317853,14.94277,-18.37453,13.42262,26.24884,24.61021,-10.60894,20.69576,28.03605,2.192023,16.95992
0,631,-4.580397,-23.97346,-27.19912,-23.44757,-14.74852,-10.65062,-15.78959,-14.73142,0.4943696,20.23436,-11.9875,20.05536,32.08031,32.18098,-4.386468,26.20682,34.65696,8.335719,23.25394
0,632,1.068286,-19.29007,-21.20727,-18.08036,-9.126778,-4.854049,-10.65296,-9.397165,8.261636,27.43814,-5.518434,27.04265,38.42265,38.66158,1.796008,33.11059,40.18037,13.95018,29.16198
0,633,4.098489,-16.55197,-19.85311,-15.79029,-6.491641,-2.326014,-7.887409,-6.664234,9.52787,30.38172,-3.781157,29.85183,42.32174,42.24286,4.75951,37.33918,43.96561,17.56855,33.01394
0,634,-0.05629813,-20.87239,-23.51646,-19.8593,-10.60128,-6.897727,-12.34055,-11.08685,4.588159,25.44406,-8.206731,25.31132,37.97491,37.7916,0.6471486,32.90483,39.8858,13.89502,29.11039
0,635,-0.8874415,-20.63028,-24.24621,-20.1551,-11.30871,-7.08206,-12.08665,-11.00428,3.203501,24.7604,-8.913971,24.45537,37.39577,37.29018,-1.026229,31.85145,39.41941,11.618,27.52967
0,636,-3.12412,-24.60109,-26.80218,-23.20311,-13.74509,-10.04682,-15.30545,-14.22637,1.926651,22.75394,-11.26563,22.41448,34.48755,35.40598,-2.606642,30.44749,35.66497,10.36435,25.53637
0,637,-3.830406,-26.12046,-28.12549,-24.73359,-14.88134,-10.92919,-17.35609,-15.74148,2.11211,23.8888,-11.98508,22.44797,34.25441,35.73884,-2.520104,31.58629,35.75655,11.90291,26.67741
0,638,-9.950459,-32.65142,-34.14301,-31.34152,-21.45813,-17.12043,-24.69175,-22.32339,-4.427357,20.27241,-18.20077,18.11386,30.81348,32.40691,-8.528145,28.05979,31.78298,7.675986,22.90908
