type,latency,P7,P4,Cz,Pz,P3,P8,O1,O2,FC6,F8,C4,F4,AF4,Fz,C3,F3,AF3,FC5,F7
0,1,-6.011806,-5.578866,-1.269524,-4.361017,-3.782885,-6.504828,-9.83341,-7.165559,-9.326593,-0.8756685,-2.687631,-1.716366,-9.307369,-1.708693,-7.562496,-5.589149,1.185286,-4.920392,-4.396632
0,2,-5.131738,-4.913339,-0.7858772,-3.884665,-3.235265,-5.827892,-9.106099,-5.868311,-9.88725,2.319961,-1.967824,-0.7117454,-6.35966,-2.548212,-6.418733,-4.405923,2.096528,-3.659491,-2.165036
0,3,-5.415762,-5.358207,-0.7612333,-3.865122,-3.217945,-5.707334,-9.781195,-5.854293,-9.381539,-0.3399094,-0.629869,-1.574137,-8.235722,-2.930737,-7.082855,-5.669628,1.408122,-2.95331,-4.216674
0,4,-6.826865,-5.249487,-1.226896,-4.049119,-3.004935,-5.96218,-11.24158,-6.127502,-10.0107,0.7130538,-1.317393,-2.113616,-8.258847,-2.996925,-8.980963,-7.045358,0.792389,-3.746274,-4.584794
0,5,-2.378498,-1.665102,1.627865,-0.8782768,0.5699759,-2.957682,-7.928459,-3.654539,-5.653441,4.09036,1.107473,1.541988,-4.816051,-0.3540387,-6.129217,-4.043069,5.306161,-1.559664,-0.9723215
0,6,-6.81085,-5.536642,-1.78482,-4.457306,-3.669936,-6.076123,-11.54881,-6.79666,-9.014828,-1.354454,-1.315177,-3.10726,-9.797935,-3.601646,-8.994133,-6.247686,-0.5495901,-4.45009,-5.978837
0,7,8.401379,7.002995,11.08185,8.281684,9.926112,6.460299,3.225407,5.692138,4.924595,14.05826,10.35596,10.32856,4.454131,9.014076,4.124905,7.226834,13.90527,9.429048,8.614365
0,8,15.33435,12.85029,14.77861,13.48873,15.82933,11.77112,10.13246,11.88801,9.621865,19.75033,13.03493,15.19341,10.24138,12.25675,10.40586,12.76229,19.67708,15.57968,16.19003
0,9,7.46849,5.694651,8.481232,6.937232,8.967409,5.370767,2.812932,5.728426,2.867973,11.36527,7.36136,8.157265,2.542292,4.93887,3.291092,5.917847,12.42057,8.448059,7.271592
0,10,2.167078,0.4676909,3.994413,1.657952,3.563473,0.5033106,-2.803488,1.215317,-1.862497,9.038831,2.031527,3.245114,-0.5073742,0.8592561,-0.9877464,1.598313,10.02638,3.140646,3.607088
0,11,-6.599191,-7.56008,-4.627194,-6.569889,-4.606102,-7.671937,-12.16602,-7.407172,-9.503156,-0.6831292,-6.630355,-6.06902,-9.10052,-7.040699,-9.333727,-7.692198,0.2581383,-4.727351,-6.660934
0,12,4.023099,2.411069,6.20816,3.734117,5.608993,3.198015,-1.966157,4.345248,0.8365539,9.302858,3.794605,5.625749,1.093846,5.045582,-0.3555777,3.051126,9.308163,5.257088,3.514337
0,13,3.547485,2.826287,7.453441,5.355321,8.098722,3.58797,1.772496,5.02319,1.320535,12.81697,4.104096,7.190279,4.851448,5.340605,1.603043,4.571325,11.33258,4.927781,6.78512
0,14,0.6108021,-0.5105426,5.018961,2.316253,4.685027,0.6977316,-2.758501,2.087748,-2.40066,8.691353,3.079532,2.938725,0.180228,2.48516,-1.359105,0.7343712,6.902796,2.036849,1.579225
0,15,0.8518752,0.3498989,7.223188,3.735757,6.166833,2.042438,-2.215297,3.240226,-0.5945073,10.88318,5.197587,5.158219,1.163814,3.940308,-0.819517,3.242403,8.570215,3.170329,3.09798
0,16,7.210197,4.274835,11.63841,8.028445,10.99244,7.139086,3.163894,9.299021,4.795699,17.76164,9.996367,10.37279,6.660655,10.16898,5.073177,9.802513,16.10148,5.841931,9.798485
0,17,3.234497,0.6372392,7.2431,3.694897,6.100253,2.453797,-1.265543,3.512088,0.01398769,12.89203,5.802969,5.703337,1.459232,6.442562,1.00809,5.433654,11.76164,1.495936,4.137647
0,18,-10.52629,-13.62724,-3.882586,-9.703288,-7.396846,-11.82555,-15.25741,-11.82554,-12.5743,0.7432561,-6.872768,-7.224021,-9.87882,-5.035715,-13.09914,-5.792184,0.08544538,-10.75919,-8.138295
0,19,-7.273359,-11.22175,-0.9457119,-6.892844,-4.232284,-9.216452,-12.49144,-8.842801,-10.28169,2.746909,-3.626585,-5.357303,-6.770042,-1.943624,-10.31226,-2.638939,2.440074,-6.972294,-4.093821
0,20,7.967905,3.504072,12.40133,7.522411,10.09585,5.300954,3.426871,6.212223,2.858612,16.48985,9.802232,9.19742,7.842638,12.62505,4.641868,10.81341,15.13361,6.803879,8.9956
0,21,9.43561,4.19756,13.19362,8.201987,11.18462,6.588126,4.513052,7.780818,5.823022,19.97883,10.1831,11.35807,10.92546,13.03153,7.32957,11.86063,18.54584,8.299659,12.28418
0,22,8.03784,2.868359,10.05406,6.291923,9.575882,5.115135,3.24743,6.501543,4.252036,18.17661,7.549135,10.10654,9.530051,10.11555,5.716278,10.76054,16.97933,6.724916,11.0706
0,23,6.632373,0.7003773,8.746647,4.663736,7.843219,3.218325,1.802182,4.347378,2.048336,15.70654,7.176041,8.751112,7.059066,8.711431,4.12993,9.023599,14.24984,5.52136,8.038773
0,24,6.990736,2.538415,9.880816,6.164595,9.711315,4.167012,2.689141,5.142589,2.495174,20.0482,7.652698,11.53386,9.995991,9.26255,6.673912,10.55893,16.26324,6.190042,12.06578
0,25,8.548256,3.190837,9.415319,6.497097,10.21264,4.763348,3.431494,5.509995,3.283739,20.00311,7.880282,11.08959,9.694589,9.583131,8.307943,11.71113,17.51386,6.272706,11.62984
0,26,1.990648,-3.674242,2.39914,-0.8382109,2.467463,-2.540947,-3.576085,-2.48385,-2.673713,11.69738,0.453631,3.547415,2.206759,2.419425,-0.2381032,4.490367,11.22456,-2.208034,3.535828
0,27,-0.5434886,-5.169178,1.597822,-1.819361,1.548454,-3.215526,-4.337544,-2.485493,-3.627239,12.02356,-0.6995841,3.574264,2.53047,1.515492,-0.9669693,4.450655,10.82739,-2.510072,3.514139
0,28,-1.595289,-5.771602,-0.6449491,-3.475657,-0.8252082,-4.348838,-6.087353,-5.082879,-3.951952,9.785207,-0.3850673,1.990047,0.4102487,0.3087374,-2.160001,3.145867,6.997035,-4.411801,0.2189378
0,29,-8.051472,-11.4708,-5.245209,-9.104702,-6.664284,-9.828006,-12.3021,-10.76627,-8.542372,6.047782,-5.370436,-1.860239,-4.547921,-3.907865,-8.025222,-1.97101,2.583609,-9.871258,-3.31068
0,30,4.517604,-0.1994449,7.535273,2.821475,5.66007,2.033295,0.8501666,1.917388,3.724475,20.31416,5.952659,10.42336,8.713014,6.775795,3.350636,10.35705,15.32096,2.372257,10.66352
0,31,5.397184,2.888282,9.464186,5.788826,8.095236,4.848672,2.736776,4.933056,4.477599,19.04928,9.331438,10.64993,9.561806,8.549273,5.450358,11.14907,15.47135,4.43507,9.838863
0,32,7.003276,4.558971,10.96537,6.841558,8.662678,6.178029,3.44364,5.944771,5.791219,21.77365,10.43577,12.38448,11.53117,10.42234,7.152116,13.839,18.34196,4.725381,11.5982
0,33,10.9024,7.100815,13.08966,9.090577,11.42694,8.632854,5.611487,8.792489,8.786529,25.27642,10.87903,15.6601,14.88683,12.61771,10.35198,16.83503,19.82931,7.290156,15.66231
0,34,-9.393785,-10.42177,-2.252825,-7.69333,-6.384464,-8.764027,-12.43941,-9.094127,-8.681026,6.601499,-5.568293,-1.707258,-3.867369,-4.116588,-7.598029,-0.807004,2.383568,-9.480009,-3.586059
0,35,-11.10016,-11.58795,-0.7613418,-7.639843,-6.180294,-9.127788,-13.10754,-9.355771,-9.246293,8.839664,-4.542988,-0.9296336,-2.071783,-4.362644,-8.266332,0.4299612,3.55208,-8.537328,-3.588316
0,36,-3.472586,-3.846951,7.159784,0.03627411,1.029216,-1.444729,-5.68198,-2.308866,-1.219818,15.65201,4.487174,6.117948,4.420028,3.735,-0.577485,7.24001,9.443686,-1.428679,2.628142
0,37,2.043612,1.402799,11.89731,5.243432,6.408604,4.52948,-0.5533251,4.097401,4.841808,21.42334,10.62866,11.91451,9.688663,8.438094,5.634295,12.78185,15.63605,4.356689,8.522324
0,38,5.159493,3.46705,14.36734,7.483762,9.146924,6.706771,2.696457,7.109182,7.305804,25.42037,11.58072,15.20815,13.83434,10.60022,8.787065,16.67592,19.45156,6.811052,15.14905
0,39,3.755662,2.204938,12.31571,5.844355,7.236133,4.650666,0.8561989,4.439128,5.222742,20.00023,10.38906,11.75663,11.31478,8.291491,5.414758,13.20373,16.36308,5.895116,11.36153
0,40,5.379008,3.416313,12.36359,6.883271,8.978044,5.797426,2.718898,5.190801,6.963759,22.5751,11.17093,14.64196,13.55583,9.351796,6.647295,15.13534,18.42485,7.359906,12.62662
0,41,12.89103,11.00466,18.03651,13.93842,16.62428,13.31221,10.56208,13.63977,13.22238,31.94691,17.03584,21.55336,23.51615,15.73243,14.97679,23.34409,27.16635,14.09329,21.57149
0,42,21.70776,20.73459,24.0317,21.81106,24.11424,21.40999,19.49117,20.96767,21.27591,38.92711,23.33532,29.23474,30.1327,23.76345,23.76942,30.21077,34.17443,21.80908,29.49681
0,43,16.89764,13.82597,17.72428,15.30206,17.9803,15.12457,15.52192,14.82304,17.14789,34.07154,15.93567,24.18124,25.81725,17.70085,19.15106,24.95966,29.69485,16.2691,25.27581
0,44,9.970478,8.526852,11.40332,9.883144,12.71663,9.775558,9.931723,9.590646,11.54342,28.56573,10.10646,17.87189,19.20263,10.20475,14.24598,18.80159,23.99422,11.10522,19.78938
0,45,1.726954,2.86059,4.963243,3.966885,6.161974,4.340127,3.239971,4.239168,5.288598,20.21718,5.36128,11.36859,12.02457,3.681333,6.368047,12.23155,17.42693,4.570283,11.87331
0,46,-5.479463,-5.870153,-2.754185,-5.154447,-3.329724,-4.213964,-6.615867,-4.721693,-2.267024,13.56298,-3.259928,3.363302,5.661944,-3.191717,-2.338253,4.995604,9.890411,-3.784023,3.215087
0,47,-10.51608,-9.518003,-6.165067,-9.341614,-8.635484,-7.750825,-12.16322,-8.475619,-6.11377,7.991716,-5.762074,-2.142073,0.7884753,-5.656671,-7.457242,0.4504833,5.601826,-7.349382,-1.997909
0,48,-8.222666,-8.950067,-3.316229,-6.876534,-5.396382,-5.698117,-9.558285,-6.588947,-4.060192,9.81398,-0.6382688,0.3765036,1.714267,-1.934161,-4.715675,3.09636,6.917211,-4.02808,-1.947251
0,49,-17.9038,-17.54811,-11.13529,-15.42747,-14.03126,-14.53837,-18.17206,-15.76668,-12.4968,3.537717,-10.11111,-7.389859,-4.838376,-9.756535,-13.2548,-4.55884,-0.5114869,-11.33565,-9.535151
0,50,-23.12807,-21.26057,-15.392,-19.68775,-18.75714,-18.26779,-23.3524,-20.19847,-15.89646,-0.6918216,-13.79111,-10.29537,-10.68904,-12.69235,-18.54702,-8.966051,-5.069268,-14.59457,-15.3068
0,51,-18.72744,-17.98288,-10.39093,-15.32472,-13.69304,-14.11764,-19.82191,-15.78855,-11.1595,3.585423,-8.011194,-6.590935,-6.067608,-7.223915,-14.50848,-5.187419,0.05991971,-10.87897,-10.73085
0,52,-6.473164,-7.04783,-1.104576,-5.270789,-3.753334,-3.269499,-8.412379,-4.329661,-0.5064228,13.92826,2.139953,4.352634,6.261963,3.45948,-3.22761,5.95743,11.27324,-0.8429352,2.114799
0,53,-0.1348351,-1.397869,3.650603,0.4931315,2.568733,2.375916,-2.534071,1.383214,4.931885,17.91082,8.060729,9.539292,10.35428,8.670267,2.591208,10.53033,15.31472,5.184357,7.17146
0,54,-0.9762341,-1.876842,4.140136,0.2842964,2.6139,1.468912,-2.995669,0.4066058,5.336966,18.71661,5.743187,8.981918,11.23905,6.652495,2.447098,9.548153,14.74633,4.365892,8.11877
0,55,-11.12815,-12.30696,-6.036312,-10.11201,-7.947834,-8.770492,-12.17989,-9.33168,-4.275529,8.568374,-6.75401,-0.3384252,0.5154865,-4.005874,-7.832952,-0.4800029,5.569595,-6.664471,-1.910425
0,56,-16.31325,-17.32105,-11.29871,-15.20224,-13.50274,-13.10185,-17.96567,-13.53087,-9.817707,1.520739,-9.937713,-5.52774,-5.823802,-8.552905,-14.78608,-4.995093,-0.6540152,-11.3716,-10.14076
0,57,-2.664361,-4.457212,1.97796,-2.640387,-1.25687,-0.00866089,-5.579572,0.03752178,3.249506,16.11475,2.581708,8.13396,9.034688,4.312173,-0.9620825,7.802794,11.8807,2.182978,4.046921
0,58,2.730602,1.467142,7.928449,3.181634,4.0793,5.893635,0.6268201,5.955516,9.560837,20.94313,8.57864,13.13766,15.02843,10.21823,5.408784,13.31355,18.50183,7.247275,10.26196
0,59,4.918441,3.811348,9.290977,5.668458,6.509137,8.791593,5.243268,10.26993,10.93066,22.19235,10.29817,14.6303,16.98447,11.86641,7.940721,14.50941,20.1844,9.357387,12.32263
0,60,-5.217972,-7.978278,-1.176572,-5.561651,-3.926783,-3.281069,-5.409863,-1.876567,-0.3675068,13.50704,-2.509658,4.084918,7.304286,0.9481608,-2.600586,4.208217,10.67166,-1.23566,3.236848
0,61,-10.76465,-13.6723,-6.581718,-10.96877,-9.547862,-8.308282,-11.29749,-7.142323,-5.480222,7.287451,-6.609568,-0.09754358,2.194316,-2.864699,-6.908838,-0.7741144,4.697895,-5.387403,-3.905674
0,62,-9.379731,-13.01186,-5.094301,-9.659175,-7.581089,-7.518371,-10.57968,-6.714753,-3.907413,7.323714,-5.412627,0.3009901,3.413901,-1.626787,-7.129944,0.4005179,6.070304,-3.866305,-4.31185
0,63,-3.041882,-7.62114,0.1976253,-4.412632,-1.61453,-2.032012,-3.932391,-0.9299604,3.131997,16.78269,-1.658253,6.35533,10.56495,3.189071,-0.3854157,6.973051,13.27947,2.125293,5.332618
0,64,-3.604447,-8.486325,-1.219447,-5.620459,-2.96685,-3.191985,-6.523427,-2.795572,2.01122,13.56097,-1.691966,4.96665,8.783356,2.393577,-1.101832,5.199485,11.27523,2.713557,2.650873
0,65,3.168858,-1.631836,5.599822,1.155802,3.499628,3.846278,0.2292116,5.370024,7.579848,20.41539,3.992091,10.63297,15.14429,7.871516,5.843591,11.18797,16.95161,8.421895,8.943731
0,66,8.36419,4.509911,9.714183,6.797451,9.729923,8.760604,7.56012,10.64905,11.99238,26.33056,6.14896,14.78448,20.34281,11.459,11.71326,16.54954,22.50659,12.35498,16.39695
0,67,8.833051,5.253293,8.729025,6.961253,9.709807,9.222638,7.660638,11.11761,11.5886,24.99287,7.030505,14.01606,19.93105,10.4743,13.04224,15.99115,22.23889,12.98052,15.89324
0,68,7.995319,3.234032,7.837706,5.421898,8.66876,7.532222,6.214327,9.033487,11.16337,24.46192,6.483396,13.69972,19.85724,9.327556,10.59711,16.16891,20.56745,11.96842,15.90526
0,69,12.8001,6.711777,8.8018,8.110588,11.95041,10.78945,11.11168,12.38679,14.81816,27.97975,8.477251,15.09933,23.87958,11.86045,13.88975,19.58468,25.17577,14.30197,19.04029
0,70,12.00126,5.951133,7.554884,7.169893,10.89696,10.22527,9.844854,12.43335,13.15449,26.90667,6.839189,14.28986,22.60494,10.85225,13.54362,18.03329,24.13897,14.23111,17.06781
0,71,-6.123727,-12.60244,-8.693913,-10.19262,-6.140312,-8.357545,-6.332088,-6.955586,-4.427117,11.7341,-10.26465,-1.189531,6.308387,-4.68517,-2.751655,2.509912,7.664243,-3.702983,1.704814
0,72,-4.232932,-10.11974,-7.034386,-8.212733,-4.451369,-6.219703,-4.047985,-5.324861,-2.067193,13.83999,-8.4045,1.781212,7.981699,-2.040824,-0.2657659,4.739719,9.197474,-0.8420236,3.716996
0,73,3.296335,-3.447791,-0.1543497,-1.167556,2.653866,0.7886158,2.759337,2.393562,4.464393,18.4994,-1.820903,7.936776,14.60402,4.00372,7.2231,10.84824,14.35307,5.728675,9.797338
0,74,8.655535,1.145882,4.102551,3.155571,7.041189,5.241883,8.058702,7.490761,8.925529,23.86966,1.21767,12.14923,20.83316,8.245428,11.39958,15.17076,20.57398,7.867599,15.0319
0,75,8.303738,0.4231151,2.552825,2.141437,5.962648,5.372864,7.209601,8.388731,8.490148,22.98501,0.8568321,10.18566,19.51928,7.684388,10.18029,13.29819,18.79534,7.486967,12.69809
0,76,5.961791,-1.339626,0.9953712,0.5317425,4.309457,3.751253,4.958203,6.761385,5.736476,21.57411,0.4111291,8.103183,17.77922,6.974996,8.608063,12.62283,17.14619,6.661091,11.10657
0,77,12.46938,4.517685,7.16834,6.325962,9.979438,9.481036,11.28875,12.7199,11.51983,27.79206,5.149942,15.46764,23.8858,13.42961,14.59658,19.49223,23.26652,11.89764,18.20254
0,78,8.000381,1.308566,3.585451,3.187423,6.418933,6.572709,8.134882,9.567068,8.441819,23.10668,4.020587,13.01608,19.07045,10.49554,11.51525,14.83073,18.84581,8.497462,14.20475
0,79,5.496127,-2.910425,3.297416,0.7121347,4.339289,3.117178,4.008251,6.13487,5.441846,20.61263,2.579618,10.57944,18.2726,8.784045,8.593755,12.74007,16.47189,5.711451,11.09949
0,80,-3.461311,-11.70858,-3.951583,-8.020169,-4.989435,-5.82205,-4.29031,-3.467304,-2.263263,13.11173,-6.697321,2.046767,9.166605,0.8420415,-0.3595035,6.152426,9.050574,-2.353905,3.283265
0,81,-4.9967,-12.81418,-5.460177,-9.17716,-6.262327,-6.672456,-6.221522,-4.791939,-2.792429,10.15203,-6.829529,0.5202966,6.488035,1.15021,-1.866767,3.96704,7.691927,-3.359537,-0.339407
0,82,-7.65903,-14.17563,-5.062494,-10.58763,-8.644562,-8.005874,-9.672261,-6.362663,-4.352829,9.478509,-7.100404,-0.9561386,4.344162,-0.2388957,-4.464081,3.084532,6.374818,-5.40129,-1.889721
0,83,-7.753207,-14.97865,-4.688413,-10.6461,-8.827285,-8.13991,-9.318518,-6.404274,-4.28451,8.261883,-6.07554,-1.99773,3.745038,0.03589496,-3.474405,3.409844,6.972078,-5.040888,-2.352316
0,84,-14.79467,-20.5327,-9.187401,-15.69332,-14.51641,-13.65971,-15.08593,-12.17443,-11.35881,1.428028,-9.235279,-7.748358,-2.60122,-4.189337,-10.42496,-2.296873,1.123986,-11.06237,-10.02588
0,85,-15.82445,-20.76649,-9.354381,-16.74244,-16.64599,-14.58536,-16.00964,-13.34696,-13.02495,2.091233,-9.071815,-7.103016,-2.052967,-4.436101,-12.06132,-4.112489,0.2919862,-12.06826,-9.756056
0,86,0.8919116,-4.023646,6.990437,0.6123923,1.509149,3.238936,1.691713,5.351696,4.87146,18.61094,8.137612,9.939367,14.71554,12.2039,5.385154,13.7508,17.32186,5.432742,7.957204
0,87,2.881727,-2.804226,8.07355,1.939302,3.298095,4.280028,2.725104,6.16366,6.324505,19.38069,8.99355,11.08878,15.2658,14.23259,6.851915,14.24716,17.60613,6.511892,8.775984
0,88,-6.819674,-13.84441,-1.757242,-8.293712,-6.360533,-6.669449,-7.596806,-4.412879,-4.909795,9.767824,-1.298814,2.891365,7.604829,4.009461,-2.585421,4.232715,8.338349,-4.566032,-0.1100869
0,89,-5.585443,-11.76049,-0.1075345,-6.251539,-4.73198,-4.419135,-5.289746,-2.600678,-3.302221,10.60131,2.21842,4.099006,8.158289,6.425026,-1.637413,6.633368,9.369445,-2.89196,-0.6230206
0,90,10.41047,2.90641,15.37027,8.214736,9.441457,10.3178,8.915713,12.56698,12.14907,26.08813,15.53346,18.05663,21.69025,20.05734,14.13848,20.4289,23.69888,12.06724,15.03983
0,91,19.69548,10.06359,22.82271,15.35249,16.80388,17.80218,16.58993,20.42218,20.90313,33.71563,22.03796,26.36633,29.65878,26.85373,22.26648,27.55061,31.64995,19.45419,23.6227
0,92,16.06843,7.133889,18.80256,12.2123,13.36167,14.78839,14.18999,17.32629,17.626,28.71916,19.10504,21.46007,25.99991,22.18337,19.46756,23.29519,27.79638,16.77086,18.5826
0,93,2.154156,-5.042013,7.399494,-0.3394686,-0.3262578,2.289885,2.012574,3.978309,5.477648,17.95406,6.91711,10.03369,15.05138,10.06758,6.400466,12.87279,17.69563,4.89697,5.874449
0,94,2.689219,-4.542031,8.045356,0.7528981,1.915593,3.113271,2.018846,4.845296,7.995412,18.03183,6.818141,11.49442,16.14446,9.231172,6.779538,13.10245,16.93627,6.233138,7.23479
0,95,13.67542,5.329024,16.49781,10.53086,12.21892,13.79949,12.82976,16.58531,17.9897,27.61933,16.63222,19.75213,24.52753,18.8283,17.16567,22.731,25.9005,15.74309,16.94668
0,96,18.97408,11.18342,20.86429,15.82708,17.88843,19.03183,18.98826,22.23933,23.15388,34.08863,19.9316,25.0158,31.22012,22.77305,23.5967,28.64564,32.54048,21.09769,25.20348
0,97,13.52067,6.097284,14.0373,9.720909,11.22041,14.04849,13.08414,17.77996,18.85699,27.29515,12.79144,19.93436,25.32714,15.45596,18.98368,22.05306,25.78094,14.59768,20.00316
0,98,7.953934,-0.3199503,7.759109,3.504057,4.843828,8.742393,6.726851,12.6858,13.17725,20.98599,8.273329,13.91088,18.9893,9.904456,12.55056,16.13942,18.07505,8.641557,10.99422
0,99,7.676274,-0.6805143,8.279797,3.604544,5.204108,8.394965,7.283641,12.58582,12.68503,22.75114,8.435925,14.38745,20.21499,9.017051,12.46346,16.15892,19.9942,8.224519,12.37211
0,100,3.41599,-3.352784,4.767125,0.5155138,1.524161,4.773472,4.351952,8.503257,7.874245,17.84034,4.604231,10.81685,16.60603,5.240793,8.871307,13.22109,15.16512,5.640299,7.880688
0,101,8.348898,2.269698,10.2172,6.534019,7.996865,10.44423,10.51774,14.29748,13.53009,23.65496,10.28509,16.70708,22.49593,10.84135,13.98187,17.9032,20.48774,9.145752,12.89694
0,102,12.94976,4.408766,12.13409,8.527347,10.15561,12.05732,14.14054,15.69325,16.05311,26.20985,10.88295,19.56134,25.18368,11.59231,17.80239,21.68531,24.09553,9.539856,16.10073
0,103,11.41604,3.392746,11.34609,7.595315,8.534729,12.27822,13.04475,16.47788,16.14273,24.50711,11.3062,18.49378,22.98341,12.0368,17.93024,20.38069,22.20055,9.194868,14.21095
0,104,6.394099,-1.34001,6.43122,2.565123,3.743978,6.363874,7.644322,10.38755,9.431624,20.41577,5.30278,12.9843,19.20949,7.913003,12.4842,14.743,17.07666,3.598943,10.78419
0,105,-6.872018,-14.30525,-5.054006,-9.5359,-7.909141,-6.749016,-4.635078,-2.741886,-3.851799,7.351786,-7.662604,1.186779,7.423808,-2.759671,-1.192852,3.177276,7.020622,-7.881811,-1.009769
0,106,-15.13819,-22.11135,-11.6291,-17.18379,-16.67999,-13.9695,-14.12546,-10.64478,-11.46729,-2.820653,-12.1368,-7.415762,-3.06945,-9.475348,-9.976122,-5.274479,-3.517418,-14.90459,-12.68267
0,107,-15.67978,-22.81981,-10.31552,-17.63095,-17.60417,-14.61748,-15.54946,-11.84065,-11.04179,-2.013588,-12.16863,-6.842312,-2.048544,-8.593392,-10.66416,-5.309232,-1.757606,-15.5612,-13.35162
0,108,-16.58277,-22.74517,-10.50983,-17.40801,-17.29211,-14.03467,-15.22357,-11.24951,-9.56951,-2.580619,-11.33727,-7.186952,-2.710838,-9.035719,-10.90551,-4.960058,-1.499322,-16.13589,-12.93665
0,109,-18.02481,-23.65782,-11.08691,-18.53155,-19.2081,-14.90919,-16.90549,-12.38683,-10.76131,-5.151544,-12.01075,-8.380562,-5.597728,-9.603038,-12.41049,-6.253801,-4.657554,-15.53675,-15.53923
0,110,-7.168032,-13.28139,-0.1248915,-7.739003,-7.787642,-4.88054,-6.321786,-1.883499,-1.19918,6.212158,-2.089499,2.976838,6.648705,1.388264,-1.43667,4.911342,6.234533,-5.861403,-1.975704
0,111,-10.59452,-15.59252,-1.491034,-9.846293,-10.7867,-6.797276,-9.339721,-3.009146,-4.760167,2.387331,-3.672187,-1.502791,3.523481,-0.973982,-4.314955,1.037498,3.835066,-8.01229,-6.353626
0,112,-13.54239,-18.5813,-4.773064,-13.20514,-14.61963,-9.292913,-12.7521,-5.439388,-7.573004,-0.2967595,-4.751848,-4.124309,-0.2032096,-3.998225,-8.225101,-2.995176,0.2931419,-11.08106,-10.14156
0,113,-13.63487,-17.03889,-3.482903,-11.79426,-13.03175,-8.414318,-10.98488,-4.988836,-6.071474,2.374589,-4.377522,-0.9838981,2.292231,-2.922943,-7.931209,-1.409014,2.936217,-10.72414,-7.234205
0,114,-13.82132,-18.77993,-4.243732,-12.60181,-13.54909,-9.216434,-11.92885,-5.442816,-7.644387,0.2302701,-4.342257,-3.142714,0.4700511,-3.291211,-7.702486,-1.257027,1.084925,-10.80593,-10.13175
0,115,-18.4472,-22.65473,-7.266222,-16.41802,-17.67185,-13.43404,-16.23998,-10.66435,-11.29735,-2.825129,-7.106728,-5.90547,-3.109385,-7.046122,-12.61286,-3.889896,-3.048545,-14.81247,-14.0136
0,116,-19.29178,-24.10955,-8.09528,-17.55841,-18.62709,-14.29899,-16.60185,-11.43269,-11.14166,-1.670483,-7.757879,-6.576158,-1.583778,-7.248226,-12.18504,-4.520877,-1.536427,-16.10705,-13.87384
0,117,-13.77503,-18.35342,-3.213382,-11.71161,-12.28545,-8.665314,-11.40124,-6.040859,-5.935188,2.49491,-1.832843,-1.275827,2.613202,-1.782349,-7.108265,-0.2066705,2.099214,-10.04616,-10.37273
0,118,-3.555243,-8.262418,7.574715,-2.473965,-3.904839,-0.05670581,-2.337444,2.747378,2.448925,12.20715,5.307939,8.161467,12.65876,6.859234,1.570498,9.242359,11.06781,-0.7539345,2.692795
0,119,8.723089,3.562888,18.55416,8.994332,7.715932,11.29848,9.870799,14.58831,13.35836,23.83829,15.17818,19.10769,24.25748,16.85234,13.41401,21.01031,22.4548,10.05972,15.3911
0,120,7.192877,1.176332,15.00636,6.144354,4.880238,8.680847,7.422853,11.66368,10.68192,21.04858,12.69207,16.16702,20.37628,12.33966,11.10769,17.24941,17.85748,7.780679,11.20862
0,121,10.33447,4.975283,16.96831,8.892589,7.51423,12.32443,10.92016,15.66868,14.69881,25.41025,14.80065,19.75832,24.16987,14.37385,13.91341,19.98946,21.86317,10.39806,15.93047
0,122,11.27864,5.661757,16.32077,9.391007,8.658315,12.72942,11.44854,15.96259,16.34835,25.35672,14.19914,19.59948,25.22014,13.43331,15.93822,18.33433,22.253,9.994767,16.27524
0,123,11.29508,5.677349,15.98773,9.369401,8.289715,13.00668,11.06285,16.68033,15.06821,23.15964,15.07423,19.94667,24.12246,13.07289,14.8886,18.73917,20.23658,9.828816,14.81536
0,124,2.696616,-2.459075,8.481177,1.639017,0.8384164,4.667145,4.22826,8.396455,6.468058,16.90727,6.987721,13.2602,18.43577,6.099475,6.884738,10.85844,13.29667,3.018633,8.648842
0,125,7.416529,2.932848,13.56642,7.158622,6.109308,10.39845,9.296006,14.01105,11.84643,21.02015,14.15416,18.25474,22.01425,11.35846,12.86773,15.46172,18.34748,7.447705,12.73041
0,126,12.57569,6.848964,17.70226,11.07765,10.17197,15.12455,13.2073,18.99459,17.61131,25.99025,18.60655,22.74608,27.30783,16.19343,17.10149,19.8247,21.71401,10.91562,16.84108
0,127,-5.421445,-9.923461,1.224789,-5.724473,-6.821579,-1.823617,-4.033834,1.792534,0.7023258,9.549191,1.356745,5.234384,11.3084,0.3056897,-0.2319237,3.131738,4.81389,-5.789392,-0.4955016
0,128,-9.439902,-12.96524,-1.717373,-8.874287,-10.75636,-5.049914,-7.470122,-2.114395,-3.534617,5.122956,0.2409046,1.127846,6.364307,-1.105331,-3.997752,-1.487082,-0.2760362,-8.220782,-6.232279
0,129,-3.343178,-6.023681,4.049375,-2.953856,-5.029587,1.016148,-2.644745,3.597765,2.269398,12.1088,5.639641,7.250279,12.40503,3.704258,1.855996,5.573111,6.727729,-1.885665,1.011388
0,130,5.448863,1.214767,10.89036,3.836726,1.623954,7.927657,6.090786,10.8822,10.382,19.78022,10.81767,15.58573,22.16793,9.230641,9.210024,12.64015,13.88922,3.076411,9.905505
0,131,-4.20235,-7.330863,2.846666,-3.515611,-5.588122,0.6167696,-1.361085,3.80931,2.520094,9.891212,5.105165,7.872258,12.64482,1.290317,1.790975,3.443377,4.068401,-4.592292,-1.106513
0,132,-7.060633,-10.43418,0.9454933,-6.255981,-8.276817,-2.65439,-4.824745,0.5625288,-1.255939,7.647678,2.339843,5.467751,9.436585,-1.925485,-1.314869,0.8246765,1.588344,-6.447594,-3.282578
0,133,-0.2530448,-4.726091,6.454345,-0.9649841,-3.020348,3.452233,0.2427033,6.893738,5.887774,13.35519,8.197432,10.60312,15.45824,3.86443,4.307936,6.678623,7.3928,-1.11943,3.519782
0,134,15.09163,9.64506,18.40457,12.7831,11.66529,16.95223,13.95074,19.84213,19.65061,25.82929,20.75228,23.62246,28.0868,17.81838,18.45783,19.40865,20.61861,12.20871,16.10534
0,135,14.62777,8.465479,15.03061,10.61026,9.958878,14.73467,13.1432,18.29642,16.4799,26.56612,15.72802,21.43786,29.00837,14.01257,18.58288,18.69279,20.0022,9.315192,17.15582
0,136,10.68141,5.031925,11.24251,7.846231,7.547322,12.35548,11.63245,17.08462,12.83256,22.92985,12.63243,16.76718,24.87613,9.489905,14.93665,14.88079,15.41403,6.723357,12.07735
0,137,14.44776,8.946852,15.21601,11.92496,11.86752,16.09084,14.9965,20.72621,16.78663,25.60397,16.06894,19.91636,28.20467,12.63506,18.79856,19.0966,18.8882,10.69288,15.862
0,138,20.11057,15.06196,18.80866,16.6732,16.5217,21.56656,21.27069,26.70764,22.05123,33.34941,19.07088,25.37555,35.52687,16.61028,25.1053,25.26344,25.59283,14.06571,23.85374
0,139,16.83986,11.46325,12.55564,12.57039,12.8937,18.33895,17.48634,23.13447,19.57175,26.92596,15.73987,21.46477,30.58154,11.35508,20.69311,20.58036,18.80825,9.362422,16.87875
0,140,6.870056,3.350016,5.482442,4.670224,4.814153,9.08869,8.432574,12.97939,10.45371,18.77316,6.748837,12.96213,22.24132,3.05119,12.12798,11.68035,10.38511,1.468802,8.708601
0,141,17.39638,11.49268,12.837,12.78438,13.95776,17.1409,17.98431,21.41422,18.87476,28.41435,13.91993,21.00253,31.65553,11.45434,21.44598,20.23535,20.61973,9.855469,18.93113
0,142,20.02033,14.65584,15.68179,15.71249,16.65797,20.31046,21.07117,23.87442,23.57508,29.952,16.73847,23.22691,33.81142,14.8633,23.8582,23.58035,23.03938,13.36125,20.92124
0,143,13.78691,8.138367,9.31762,8.977777,9.578438,13.25244,15.25179,16.11199,17.3145,24.15866,10.10976,17.31031,27.4903,9.299626,18.25633,17.52549,17.94393,5.642428,15.3919
0,144,3.506579,-1.653541,0.3323267,-0.7085892,-0.2814033,3.323405,4.151132,6.443296,7.024591,13.71882,-0.1879164,7.296712,16.26584,-1.639068,7.544337,6.390513,6.591616,-3.712181,5.21217
0,145,-5.596081,-11.1457,-7.182296,-8.944095,-9.069037,-4.232911,-3.851955,-0.3016136,-1.798573,2.460539,-5.859646,-1.351957,6.083311,-8.640334,-1.869614,-0.8235114,-2.806655,-9.450644,-5.922687
0,146,-1.898058,-7.518813,-1.427447,-4.633936,-4.909517,-0.9900761,0.2815576,3.129141,1.036379,7.882865,-2.285393,2.407305,11.66584,-4.772546,2.27617,3.147317,2.035725,-6.697026,-0.7568022
0,147,10.5615,6.175278,9.274529,7.617298,7.153154,11.49097,12.55944,15.48162,13.6778,18.69273,7.933241,13.78942,22.99626,6.858771,15.70404,13.67205,14.75633,5.132607,12.1277
0,148,12.28857,7.608571,9.531159,8.641484,8.385199,12.37872,12.59115,15.69928,14.76446,17.56894,9.900876,13.89147,23.35833,7.677535,16.5918,13.06465,15.06425,6.561788,11.68401
0,149,12.46685,6.169848,8.699989,7.568406,8.214454,10.13458,11.55649,12.68066,13.70666,17.20501,8.074639,13.67356,22.92895,6.711199,15.86855,12.81535,14.30486,4.745889,12.60177
0,150,3.309334,-3.702332,-0.6681466,-1.939386,-1.445422,1.761775,2.822737,5.238364,5.02985,7.343171,-0.09228104,3.621812,12.65744,-2.137792,5.405479,3.698144,4.278049,-3.253486,2.234537
0,151,4.335625,-2.045005,2.82917,0.3587269,0.2357199,4.590583,4.554031,9.102928,7.862999,9.409288,2.834754,5.856249,15.14784,-0.09402373,7.839834,5.401214,7.240195,-1.544653,4.914423
0,152,4.326638,0.09755665,5.31075,2.944893,3.491922,5.078291,5.546896,9.182218,6.799544,11.36007,3.196223,7.23858,17.91743,0.6917982,9.5678,6.902123,9.563545,1.511701,7.684072
0,153,15.02656,10.55155,13.99147,12.36819,12.27635,14.38937,15.75058,17.60324,16.5817,18.10664,12.12989,15.76681,26.15223,9.018559,19.51297,14.63193,17.14509,12.13631,15.43216
0,154,20.82025,15.49679,17.65466,16.78985,16.58424,19.37524,21.86055,22.57313,21.9381,23.25561,17.4845,20.30606,30.12439,13.22426,24.44598,19.16682,20.75939,14.67206,20.7389
0,155,21.83245,16.391,17.54028,16.9994,16.59793,20.29876,23.1929,24.49004,22.44267,24.87996,16.09375,20.59012,31.61486,11.6309,24.38167,20.2364,21.18547,14.33354,22.43996
0,156,15.60646,11.21694,11.49826,12.18793,11.86414,15.66429,17.61518,20.15705,16.92976,16.49559,11.88966,13.95722,24.76997,5.467344,18.83066,13.73819,14.10476,7.584928,13.44776
0,157,10.00959,5.947414,7.501402,7.479296,7.275102,9.887116,12.78766,14.25982,11.02451,12.22966,6.274656,9.175588,20.57475,0.661422,14.70079,9.577,8.809446,2.168569,10.46562
0,158,9.291499,5.095743,6.371621,6.551445,6.350483,9.837631,12.40531,14.84688,10.7793,12.89136,5.212265,9.084866,19.99026,-0.4493064,14.53592,9.586831,9.05992,2.750118,9.879894
0,159,-1.887547,-5.735439,-4.389015,-4.585261,-5.308537,-1.513666,0.2846421,2.236649,0.1043761,0.02860954,-3.579614,-1.444887,7.842736,-10.08932,2.440878,-3.568388,-3.258491,-8.00918,-2.658977
0,160,2.03305,-1.010916,1.409006,0.754305,0.3444854,3.030296,5.546844,6.651847,4.638459,7.373951,1.749661,4.416426,14.21725,-5.112097,7.838087,1.672573,2.398747,-4.456888,3.923363
0,161,-3.884283,-7.728812,-4.591829,-5.798392,-6.246666,-3.37345,-1.796459,-0.4818111,-1.220056,0.8784536,-3.154501,-2.398269,6.819761,-10.49622,0.1652351,-4.382629,-5.690636,-11.57065,-4.752115
0,162,-1.170756,-4.182044,0.3702362,-2.4003,-4.23772,0.3153777,0.5008254,3.03495,2.136279,3.239413,2.033145,0.5820194,8.355378,-5.737775,3.035367,-2.874847,-3.304437,-7.61606,-2.554513
0,163,3.525118,-0.0474712,4.275622,1.644297,0.352195,4.356637,5.848812,7.424676,6.814805,9.565177,4.757811,5.619265,14.13752,-1.491099,7.018484,1.956955,2.8112,-3.589283,4.201672
0,164,-5.118947,-7.022372,-2.860081,-5.643921,-8.062859,-3.182666,-2.365809,-0.1798229,-3.135671,0.1662247,-1.840831,-2.881581,5.743783,-8.697615,-0.3803157,-6.097431,-5.919954,-10.81259,-5.596922
0,165,-3.77872,-5.191683,-0.6716181,-3.64293,-5.692847,-2.14813,-2.084434,0.2859215,-2.381147,1.208618,-0.2325005,-1.075487,7.702517,-6.499892,0.3526638,-5.19472,-4.333785,-9.431485,-4.74907
0,166,-0.2216475,-0.9049052,3.139955,0.5335574,-1.172419,1.596775,2.095417,3.390377,2.236699,4.925871,3.903191,3.454668,12.63445,-2.509169,3.356685,-1.204084,-0.3042069,-5.249569,0.08715333
0,167,-7.719136,-6.684413,-4.62062,-6.041949,-8.129425,-4.52024,-4.982432,-2.993337,-4.739089,-2.436824,-2.047911,-3.248032,5.463967,-8.301513,-2.622313,-8.000332,-7.791104,-12.99137,-7.390934
0,168,-6.138679,-6.39574,-3.930173,-5.925873,-8.143709,-4.229537,-4.997969,-2.345972,-4.912323,-0.9734876,-2.399575,-1.492909,6.065285,-7.469013,-1.675184,-6.254734,-6.873864,-13.26848,-5.865237
0,169,9.344042,8.928988,10.30903,9.232778,7.070919,11.09281,10.13094,13.35796,9.174135,13.79153,13.10027,14.56116,21.24954,6.338039,14.81364,7.557815,8.269351,2.616445,8.451443
0,170,8.508556,8.052682,8.399956,7.870846,5.232955,10.22436,9.467039,12.56011,7.704118,11.62311,12.99481,12.93842,18.05995,5.797616,13.44595,4.292528,5.522582,0.6001419,6.211665
0,171,7.389905,5.882488,7.658904,6.013624,3.755878,7.443231,8.549278,8.98888,7.261484,11.62958,10.05147,11.14171,19.85625,5.091206,11.87009,3.180235,5.577636,-1.260837,6.909505
0,172,12.24198,9.844165,9.976439,9.385226,7.679696,11.03123,12.50655,12.16574,12.36572,15.19466,12.5427,14.124,24.41476,7.523439,16.59333,7.203091,9.402219,2.236567,11.37106
0,173,-3.538814,-5.322144,-4.670922,-5.142939,-7.007882,-2.884826,-2.016744,-1.985575,-1.315244,0.1669024,-0.005169477,-0.2497378,8.094317,-6.581509,1.274547,-6.678301,-5.144366,-13.34128,-6.53268
0,174,-14.68289,-14.2365,-13.05266,-14.22732,-16.42398,-11.95757,-12.41506,-11.80683,-9.73643,-7.303199,-8.963208,-9.741469,-1.031286,-15.2099,-8.492213,-14.55053,-13.99954,-22.51778,-15.52034
0,175,-12.54964,-13.04054,-10.54965,-12.66224,-15.19313,-10.68322,-11.66889,-10.63983,-9.243568,-7.87197,-5.096067,-8.362228,-0.8102375,-12.10588,-8.454056,-13.80183,-13.89624,-20.36618,-14.44352
0,176,-5.209284,-5.19898,-2.245803,-4.492191,-7.100402,-2.303352,-2.797654,-1.570395,-1.127589,0.6638409,3.034801,-0.6289007,6.792241,-3.644376,-1.31376,-5.898134,-6.411052,-14.37274,-5.977931
0,177,-5.273335,-3.64756,-1.63346,-3.739693,-6.975536,-1.416422,-2.582773,-0.3369718,-1.310522,1.451517,2.409717,-0.4816839,6.87462,-3.839235,0.006637126,-5.48342,-4.877606,-13.52881,-4.578795
0,178,-11.54464,-8.425453,-7.763549,-8.980732,-12.74397,-5.778059,-7.704053,-5.052966,-4.665544,-6.319621,-1.848372,-6.068663,0.817107,-9.462042,-6.153394,-11.75301,-10.97086,-19.24564,-12.30682
0,179,-2.839221,-0.4082537,0.7159145,-0.4219546,-3.485416,3.218949,0.8427974,4.951917,5.284251,2.224863,4.551902,3.577533,9.552262,-1.080803,2.261951,-2.96238,-2.817372,-10.80217,-3.405714
0,180,4.379982,7.393231,6.75991,6.665679,3.791281,10.43762,8.229575,12.60339,11.40211,10.18256,10.4327,9.811824,16.65568,4.138371,9.895203,4.565282,4.294696,-3.483644,5.015091
0,181,13.91358,15.8304,13.75696,14.73203,11.91411,18.50692,16.6866,21.22942,17.92418,16.17631,18.02438,16.92803,23.18872,10.4278,18.2794,11.61888,10.70358,4.396335,11.92411
0,182,17.80066,19.06634,16.3516,18.04074,16.41235,21.33401,21.14356,24.2597,21.93257,21.41125,18.1502,20.52021,28.61821,13.7406,22.61571,15.65447,14.37803,7.742061,17.95422
0,183,15.25785,14.96714,12.05935,14.47333,13.69509,17.78745,18.26828,21.88161,17.19859,18.06594,13.88815,17.30322,25.55433,8.963359,19.37492,11.57185,10.58698,4.832722,14.45491
0,184,13.51202,13.62686,9.960567,12.82467,11.62442,16.05579,16.62357,20.15401,14.68738,14.043,11.75024,14.56032,23.26644,7.10227,17.27514,9.203338,8.125607,2.456682,10.66077
0,185,4.721374,6.038622,2.961479,5.809043,5.093858,7.806236,9.865656,11.04564,7.693808,7.715489,3.335049,7.889528,17.08999,0.4463263,11.0805,2.076985,1.496835,-6.01694,4.440997
0,186,-1.432622,-1.298698,-5.084525,-1.887884,-2.446526,0.0076138,2.037369,2.267301,0.09471852,-0.6169549,-3.10753,-0.225343,7.361239,-6.477249,3.011789,-5.108511,-7.110038,-13.38807,-4.263191
0,187,-2.147428,-1.244654,-3.837779,-1.386847,-2.181489,0.6028407,2.329919,3.22313,0.6165012,-0.3675976,-2.146007,-0.67943,7.376373,-5.951817,2.321762,-5.098208,-8.371453,-11.98796,-3.711718
0,188,-0.7178376,1.032899,-1.309869,0.9101157,0.2596678,2.463547,4.552005,5.549934,1.386216,4.1092,-0.5693413,1.197384,10.92705,-3.041716,5.379656,-3.458983,-4.7526,-9.338962,0.8650844
0,189,11.99097,12.92074,8.989464,11.99082,11.05475,13.89682,16.25057,16.14621,13.50157,13.14939,10.96528,10.73916,20.38585,9.215971,17.06958,7.746081,6.164021,2.534558,10.56876
0,190,10.98892,11.24811,8.62678,10.69701,9.59696,12.10029,14.65232,13.79725,12.07207,12.00121,10.08009,9.254022,19.55812,7.915154,16.01766,7.560353,5.273587,1.290954,8.803832
0,191,1.926398,1.926122,0.2290265,1.477397,0.4351265,2.660758,5.194746,4.684672,2.630945,3.997637,0.6226906,1.19795,10.66895,-1.770385,5.611814,-1.696464,-2.991772,-8.412546,1.421809
0,192,-5.308152,-6.223117,-5.569204,-5.469287,-6.661891,-5.008229,-1.762974,-2.693624,-5.698958,-4.821476,-6.181468,-6.507213,2.62193,-7.926708,-1.760459,-9.221211,-11.60687,-14.91986,-7.311872
0,193,-0.9196644,-1.780557,-0.01195197,-0.2675098,-0.6676062,-0.9150864,2.658185,1.525762,-2.132378,1.449277,-2.28541,-1.41537,9.833706,-1.899429,4.262543,-3.71605,-4.951464,-9.310004,-0.7994104
0,194,11.11721,11.87679,9.773783,11.77242,11.24116,11.64386,14.98945,13.52831,9.475157,13.13113,9.458275,9.647445,21.15576,8.180529,16.39146,7.993031,5.760041,3.223637,10.03138
0,195,10.39828,11.38768,9.721673,11.77753,11.12603,12.35768,14.53559,14.56019,10.75266,11.06884,10.69713,8.952305,19.77864,8.073054,15.62345,7.432126,4.457414,2.672374,7.834888
0,196,12.87668,10.76976,11.03489,12.05647,12.0842,11.97903,15.31616,15.05309,10.73923,11.9305,9.883313,9.002263,20.71656,7.746895,17.06258,8.082367,5.940527,2.599694,10.85143
0,197,5.839458,4.621587,4.559074,5.410848,4.523331,5.779397,9.401428,8.755002,4.29613,4.692571,3.340991,2.043243,12.93818,1.270353,10.63774,1.917694,-1.360061,-2.329398,4.123887
0,198,-0.7133052,-1.381946,-1.053339,-0.5494853,-1.579431,-0.8358005,2.268032,1.523436,-3.320714,-2.037444,-1.999066,-5.320675,7.042221,-3.340859,4.026965,-4.617967,-8.207444,-7.464454,-3.521511
0,199,-2.260128,-2.438156,-1.355128,-1.369277,-2.403326,-2.296392,1.720622,-0.2217445,-5.255851,-0.570097,-2.644742,-5.140522,6.561386,-4.354346,3.439228,-4.915507,-9.670455,-8.722494,-2.850361
0,200,-6.101945,-5.435862,-4.629666,-3.77571,-4.507087,-4.434803,-0.3386114,-1.37327,-8.378578,-4.099903,-5.339323,-7.504432,2.283587,-7.264415,0.7503453,-8.43323,-12.27468,-12.03528,-6.515223
0,201,-7.330422,-7.784065,-5.484188,-5.04728,-4.789986,-6.379642,-2.061841,-3.442667,-10.05592,-4.52902,-6.657839,-8.119241,2.088895,-7.748616,-1.530226,-9.431695,-13.2011,-13.23471,-8.87138
0,202,-5.584292,-7.866652,-3.276214,-4.929693,-4.797024,-6.56462,-2.2812,-3.984708,-8.205923,-2.444468,-7.13262,-7.63208,3.864883,-5.560967,-0.3967339,-8.588373,-10.41414,-12.51814,-6.143514
0,203,-1.53938,-3.507883,0.5567362,-0.6296709,-1.028726,-1.797578,1.714225,0.6685222,-3.514168,-0.5025604,-1.372078,-3.954956,6.932803,-1.867482,4.643477,-4.609961,-7.688288,-9.457863,-3.835604
0,204,-6.078475,-6.904989,-1.473581,-3.410074,-3.881536,-5.320359,-2.204433,-2.930217,-7.822402,-3.3917,-3.961161,-6.389826,3.6311,-5.088038,1.181743,-6.683539,-10.83546,-12.98256,-6.428029
0,205,-11.04322,-9.977774,-5.349482,-7.522441,-9.057476,-8.699876,-6.224554,-5.856986,-12.77312,-6.962356,-7.749372,-10.49756,0.6181004,-8.285048,-4.881663,-10.24295,-14.28671,-16.39876,-9.834733
0,206,-15.56671,-13.02921,-8.907136,-10.64766,-12.83953,-10.99349,-9.631564,-8.197963,-15.86462,-12.58101,-8.383393,-15.71941,-5.722689,-10.02125,-9.461311,-13.9966,-19.60824,-19.36585,-15.6615
0,207,-14.31481,-11.93807,-6.656188,-9.911546,-12.86233,-9.423184,-9.706553,-6.617059,-13.10455,-10.90375,-6.681485,-14.62127,-4.637688,-8.204716,-9.911061,-13.20322,-17.27934,-18.62788,-14.44526
0,208,-16.00033,-13.46892,-8.327068,-11.58209,-14.86846,-11.22546,-10.70727,-8.916941,-14.60225,-13.12093,-7.239311,-15.26005,-6.380241,-10.44867,-11.30654,-14.39674,-18.04658,-19.36643,-15.09413
0,209,-1.881076,1.478822,6.675968,3.290386,-0.3110178,3.547812,3.233528,5.752021,0.2321741,1.122932,7.440259,-0.6887345,8.05064,3.0477,4.335959,-0.9782511,-5.248819,-4.360713,-0.8698274
0,210,5.111189,7.664821,11.77466,8.79028,5.606247,9.272531,9.506305,11.37408,6.730627,9.415596,11.92739,4.484555,14.47711,8.702205,11.68058,6.033357,2.192954,1.571712,7.926752
0,211,5.081971,6.427957,10.80691,7.699794,4.649458,7.720605,9.239978,9.259799,6.057184,7.743383,10.34713,2.818808,13.05638,7.343006,10.64801,5.318748,0.8339188,0.4630799,6.151068
0,212,7.546913,7.602237,12.07945,8.96432,5.772255,9.192981,11.78225,10.76078,7.655265,9.022364,13.08427,5.086086,13.88226,7.558068,11.97656,6.502357,1.782018,2.204055,7.836373
0,213,6.06251,6.70121,9.86361,7.891908,5.487211,7.69485,10.78536,9.437463,5.139967,9.699721,10.85549,4.774292,13.86137,5.935133,12.24716,6.119734,0.9526941,1.268174,8.9025
0,214,10.81235,9.725841,12.75312,11.02534,8.878303,10.76717,14.08128,12.46559,9.583536,10.67477,12.73112,6.703372,15.55078,8.091364,15.40851,7.672998,4.164248,2.389775,9.529059
0,215,14.73603,13.74559,15.72079,14.62074,12.57701,14.39959,18.44358,16.23591,12.92556,14.95162,15.40459,10.67347,19.03562,11.35113,19.46785,12.11141,7.554507,5.313136,14.54239
0,216,14.75936,14.05055,14.11623,13.7896,11.61611,14.15514,17.73174,15.84809,13.16997,14.82525,14.56348,9.927659,18.91752,9.298465,19.39031,11.69577,7.805173,4.552951,15.78045
0,217,7.856912,6.666037,5.923778,6.515264,4.627825,7.683397,11.26597,10.3294,6.289399,6.747675,8.103209,2.419831,11.19394,1.167658,12.40383,4.034149,-0.1932117,-1.655502,9.145474
0,218,14.39194,11.96803,10.90904,12.27269,11.70201,13.233,17.52283,16.3439,12.18027,14.12711,12.49155,9.931974,18.46205,7.630574,19.8114,10.65852,7.399693,5.10575,17.3953
0,219,6.292078,4.894905,2.22817,4.331247,3.763398,4.883116,8.748303,7.930542,3.045639,6.208592,1.239143,1.639009,11.35065,-2.113641,12.20278,2.491755,0.3650471,-3.690733,8.04934
0,220,-4.938722,-6.483935,-7.480087,-5.93328,-6.229957,-5.828194,-1.530206,-3.107861,-6.858556,-5.933617,-8.958608,-10.049,-1.380443,-11.59619,0.2132405,-7.301156,-12.23365,-14.5058,-4.613071
0,221,-1.587382,-3.955431,-2.153075,-2.675129,-2.817938,-3.11419,0.4882568,-0.2437896,-3.823213,-0.7241173,-5.20802,-7.179897,3.225526,-7.834518,2.849561,-2.724811,-6.749251,-10.54734,1.181716
0,222,11.15464,8.552605,9.222786,9.510415,9.492053,8.3197,13.59269,10.96211,6.991467,10.87702,6.09825,4.790249,14.76463,2.626406,16.05333,8.129519,4.028649,1.838899,13.96488
0,223,1.884858,0.3281429,0.6376251,1.352459,0.8634792,-0.108313,5.982188,2.337853,-2.209552,1.436069,-1.694187,-4.680671,4.893984,-6.119779,8.224823,-1.965204,-5.234066,-7.085476,3.410087
0,224,-6.75221,-7.913041,-7.963274,-7.152816,-7.762769,-7.677705,-1.929221,-4.626374,-9.992691,-5.717854,-9.636152,-11.10268,-2.423507,-12.89537,-1.174816,-9.169017,-12.89287,-15.45625,-3.461169
0,225,-7.98489,-8.71661,-7.189096,-7.053679,-7.910914,-7.502247,-2.645239,-4.166671,-9.562859,-7.502549,-8.178629,-11.7496,-2.541216,-12.0459,-1.318255,-10.98275,-13.72543,-15.55351,-5.304957
0,226,-0.2586136,-1.002621,2.510857,1.164355,-0.1323254,0.2274736,5.361357,3.783262,-2.07642,0.7195803,0.7212611,-4.463552,4.700436,-3.649569,5.842256,-3.52551,-5.247005,-7.997458,3.831736
0,227,1.555618,2.177235,4.880778,3.825265,2.300109,2.998057,8.0516,6.641453,0.7596973,3.657588,1.837984,-0.3804446,7.038821,-2.352832,8.47769,-0.4462619,-3.782696,-5.021438,7.786885
0,228,6.149097,4.69397,7.156883,6.340215,4.97615,5.932012,10.61289,9.251571,4.451251,4.709794,5.192977,2.192623,8.614462,0.7915198,11.72736,3.122934,-1.146072,-1.784713,9.081841
0,229,13.29126,9.781866,13.15554,11.72286,10.71943,10.72214,16.34198,14.15062,8.87707,12.09294,10.30763,7.118584,16.51178,6.574417,18.28476,9.462028,5.00702,2.605187,15.62669
0,230,-2.338035,-4.274741,-0.4668642,-2.799734,-4.761874,-4.544102,1.992987,-1.889748,-6.048649,-2.626409,-5.09527,-7.723403,1.74068,-7.527426,3.85222,-5.173827,-8.212428,-12.50196,2.161872
0,231,-1.935832,-2.162156,0.4031523,-1.302849,-3.660417,-2.824704,1.816114,-1.263859,-3.671419,-3.917816,-2.937383,-6.207151,1.391661,-7.093886,4.211933,-3.737442,-8.43412,-11.03857,0.910178
0,232,22.12851,21.08817,21.63647,21.48897,20.43959,19.57837,24.18222,21.32693,18.48319,19.24006,18.12774,16.30513,24.26486,13.87675,27.17278,18.74693,14.3784,11.01175,25.18983
0,233,22.05601,21.00147,20.72123,21.17609,20.09416,19.29605,25.27477,21.73793,17.84275,18.32457,16.43688,14.72828,23.6599,13.12069,27.33641,17.46813,13.61753,10.1596,25.87757
0,234,19.86444,20.28593,18.37047,19.63811,17.79614,18.21459,24.11736,21.44003,14.83716,16.21971,14.03712,13.28554,22.92711,9.335406,25.82825,15.05851,9.713169,8.413939,23.66894
0,235,5.354521,4.903409,4.898651,4.880712,3.402407,2.660298,9.596644,5.78865,0.02104735,3.536739,-2.27863,-1.636199,8.52392,-5.195943,10.85795,0.8628035,-3.880643,-5.976268,9.976002
0,236,2.080995,1.259251,1.835098,1.660818,-0.2046643,-0.1966754,6.595517,2.486962,-2.711011,-1.820998,-2.727132,-5.815875,3.721375,-7.287797,7.564982,-1.054792,-7.195136,-7.977761,5.329997
0,237,9.160934,8.069157,9.168005,8.861461,6.989983,6.689921,13.94982,9.540712,3.701437,4.238212,5.018673,2.202414,11.20151,0.6652242,14.77369,6.260609,0.08017312,-0.8015619,13.08242
0,238,5.012229,3.435597,6.17662,5.061325,4.055608,1.776859,9.382115,5.125595,-1.716316,2.14304,-0.3430527,-2.292418,8.554606,-4.053728,10.58949,1.675769,-2.516691,-4.252447,10.54767
0,239,11.44553,10.97487,11.81414,12.33024,11.3663,9.215495,17.36513,12.34325,5.233101,7.636688,7.110646,4.97074,14.57368,2.951923,18.67432,8.097004,1.815609,3.795667,16.63597
0,240,13.79284,13.33928,13.16452,14.46694,13.7995,11.86177,20.43014,15.58819,7.3016,10.80706,8.505715,8.477878,17.47455,6.043465,20.93296,10.77723,4.275786,6.724597,19.65199
0,241,15.93097,15.3617,15.39755,16.33092,15.69784,13.34853,20.83089,17.1474,8.477351,11.87958,10.05001,9.42084,18.50267,7.654345,22.47144,12.21021,6.049743,7.266624,22.28702
0,242,21.75653,22.1067,20.57388,22.30117,21.4301,18.71345,26.82918,21.6304,14.28782,16.23817,14.814,12.52373,23.30953,11.93707,28.73008,17.40814,10.74698,10.84864,27.20714
0,243,18.80474,18.08511,17.34206,18.75427,18.55638,14.97842,23.70638,17.92982,11.62174,14.46005,9.95495,10.42464,21.51485,7.172951,24.90767,15.2411,7.516978,7.816416,24.12732
0,244,18.05411,17.52738,14.73135,17.26667,16.91069,14.72591,22.89607,18.79957,10.79157,13.08135,7.940655,9.653562,21.08978,5.506466,23.97909,13.88607,5.115561,6.037112,24.59635
0,245,7.940279,7.162127,4.265257,6.931872,6.175203,4.81745,12.86705,8.419388,1.268133,1.731998,-0.2932693,-0.8004449,9.724847,-4.255635,13.5186,2.445187,-5.047015,-4.725508,11.74125
0,246,-0.8509769,-0.9821271,-2.929072,-1.077381,-2.152274,-3.209702,4.861762,-0.435097,-5.231566,-5.287921,-7.630445,-7.365139,2.764067,-11.28893,5.287705,-4.422529,-11.79472,-12.84818,4.040828
0,247,7.580448,7.524041,4.20472,7.192041,6.011962,5.053404,13.73149,8.419441,0.772652,1.63064,0.9386056,0.6861957,10.84919,-3.898412,14.09372,4.122856,-4.31537,-4.943492,12.05335
0,248,4.382889,5.534052,2.461504,4.900139,2.779636,3.327781,10.59725,7.078609,-1.635302,-1.077804,-1.564667,-2.128548,7.414228,-5.941566,12.10257,0.5391511,-7.430345,-6.817173,8.169357
0,249,-7.570632,-5.720693,-7.178298,-6.255851,-8.977213,-7.684629,-1.455078,-3.938124,-12.13124,-12.37032,-12.36885,-11.91939,-3.223943,-15.93406,-0.6315629,-8.620699,-15.87403,-17.50834,-1.542799
0,250,2.430658,5.425672,2.197286,4.695714,2.411181,3.766607,9.3478,7.593734,-1.437959,-1.889669,-0.4789271,-0.6904653,5.907158,-5.180694,9.855981,2.056222,-5.44933,-6.786682,8.555362
0,251,2.367447,4.844466,2.045509,4.728886,3.363015,3.285166,8.810781,6.926351,-1.986899,-0.5174127,-0.2472025,-1.955567,7.529939,-4.06797,10.45972,1.836153,-6.511483,-7.06699,8.128134
0,252,-11.43397,-8.127309,-9.834725,-8.443712,-10.10893,-9.966324,-5.573847,-6.793704,-14.901,-11.5406,-13.33575,-14.6226,-5.130429,-15.40247,-3.479676,-11.30792,-18.27669,-18.95369,-4.252106
0,253,-11.09285,-8.82276,-9.828249,-9.329303,-11.86364,-10.74248,-6.919465,-8.084087,-16.02412,-13.64979,-12.28172,-16.22868,-8.583821,-15.35808,-4.884929,-12.65393,-20.1816,-20.81602,-7.147991
0,254,-4.261371,-0.6342804,-3.143896,-1.703537,-4.252495,-3.111018,1.153003,-0.3587087,-8.811164,-6.085013,-5.621119,-9.07459,-0.6708565,-7.389738,2.876952,-5.634803,-12.19089,-14.23484,1.077385
0,255,-1.459239,0.6674318,-1.596316,0.2159833,-1.076487,-1.415772,3.346498,2.21233,-7.692008,-2.337645,-4.142227,-6.460573,3.128294,-6.208573,4.889802,-3.707764,-8.986833,-11.059,4.810585
0,256,-6.457861,-4.8863,-6.007701,-4.530195,-5.889245,-5.964559,-1.713907,-2.888489,-11.84041,-8.608839,-7.522669,-11.15752,-3.566211,-9.445348,-0.4173921,-6.34773,-14.3448,-16.17317,-3.381968
0,257,-2.905615,-0.480007,-1.417058,-1.25209,-4.430935,-1.684359,2.557785,1.327195,-7.053195,-2.962942,-3.535874,-5.992398,0.04116407,-6.525795,3.194478,-2.733607,-10.52202,-13.63491,1.585775
0,258,4.088012,5.408688,3.784884,4.656245,2.33545,4.044116,7.821632,7.247959,-1.410543,2.255196,2.332733,-0.7293028,6.218829,-1.258638,9.088333,2.611443,-3.434121,-7.535172,7.916814
0,259,18.58153,18.09123,17.23283,18.1445,16.72331,17.25177,21.73771,20.5768,13.53864,15.00838,15.06646,12.7197,20.84268,11.69201,23.15323,15.04842,9.711768,6.546877,21.28488
0,260,18.18818,18.29805,16.80565,17.93925,16.69842,17.12928,22.51691,20.50121,14.62442,16.91965,12.86741,13.52159,22.32139,11.63665,23.81396,15.72833,10.12948,5.55946,23.95753
0,261,18.48628,19.33892,15.47816,17.66545,15.53247,17.27592,23.45241,19.63074,15.4544,15.22744,12.46238,12.56654,21.54233,10.52864,24.33781,15.7462,8.981316,4.821134,22.27285
0,262,15.12607,15.71563,11.42208,14.62235,13.72725,14.14534,19.5167,16.40473,12.44444,12.0361,10.11494,8.71139,17.94675,6.736941,21.23952,13.34808,6.489286,2.30636,18.61738
0,263,11.39273,12.01512,7.030025,10.58658,10.01569,10.35311,15.94417,13.60054,7.383633,10.69434,5.329926,4.307195,16.00932,2.017464,17.87627,10.00986,5.558744,-1.403802,17.25293
0,264,3.821499,4.059731,-0.3717923,2.50967,1.277763,2.386928,7.469278,6.01902,-0.9564757,0.8593811,-3.718727,-3.545019,6.096286,-6.631716,9.086756,0.8526604,-4.078869,-9.466496,7.589667
0,265,10.77374,11.82997,7.708866,10.61613,9.363615,10.18364,16.06864,12.90433,7.504238,9.126993,4.82349,4.566835,13.8747,3.232809,17.81367,9.813541,2.757667,-0.6814936,15.02024
0,266,25.37446,24.83366,20.49854,23.59397,22.94218,22.74296,29.66023,25.68422,20.3068,23.7101,16.46241,17.19271,27.94321,14.63253,31.9503,22.87835,16.1914,11.08109,29.4646
0,267,24.06709,24.4605,16.62035,22.18206,21.8602,21.75292,28.17378,24.69274,17.90832,21.39679,14.83483,15.04271,24.4122,11.54015,31.17641,20.45033,14.093,8.853522,26.60046
0,268,24.26355,24.83045,17.04093,22.22992,21.84015,21.75016,28.17163,24.8145,18.2207,22.13423,13.62711,15.18265,26.17119,11.91256,31.36318,21.0142,14.77968,9.912022,28.44139
0,269,10.45231,12.05401,4.086596,9.353112,8.839227,9.09678,14.34144,12.04377,5.962889,8.544601,1.615791,1.165702,13.55184,-2.480582,17.80323,6.601228,1.618774,-2.722759,14.5012
0,270,-4.44305,-1.495988,-8.936206,-3.804502,-4.787797,-4.026677,0.975983,-1.906762,-6.457136,-6.495333,-10.0724,-11.80836,-1.531489,-14.38555,3.417006,-7.472873,-13.20972,-16.5266,-1.87463
0,271,4.729825,5.03886,-0.4415384,2.81847,1.718837,2.792305,8.290063,5.611344,1.032886,2.747849,-3.970665,-4.228547,6.483229,-7.151961,9.78678,0.8758953,-4.352305,-9.506348,8.282695
0,272,7.256209,8.198721,0.8988342,5.979395,5.450577,5.764142,11.58852,9.38144,2.247525,3.5594,-1.501752,-1.71671,9.243551,-4.754315,13.48277,2.341736,-2.977809,-6.260494,11.18616
0,273,7.27284,9.308821,0.7411695,6.419227,5.500202,6.377419,10.53541,9.735553,2.014913,2.331877,-0.9234468,-0.599868,9.877412,-4.239479,14.28352,2.084442,-3.829401,-5.437485,10.24396
0,274,4.44575,5.433588,-1.463342,2.928392,2.158733,2.222455,8.146387,4.935399,-0.5223554,0.9852597,-5.235756,-3.497,7.754009,-7.459013,10.18248,0.1813235,-4.655094,-8.466002,8.083096
0,275,0.6343529,1.11507,-4.242004,-0.87071,-1.885307,-1.95988,4.437114,0.705647,-4.991178,-3.27146,-8.250153,-7.735057,2.111609,-11.33083,5.032431,-4.258718,-8.773214,-11.48661,3.555157
0,276,-2.913143,-0.6416933,-6.032153,-2.202768,-3.104432,-3.924803,3.259299,-1.693798,-7.563281,-4.807251,-8.361969,-8.609878,0.6437374,-11.04033,3.891667,-6.933661,-11.03663,-13.02653,2.466933
0,277,5.793152,8.218629,2.148268,6.346187,5.7056,4.97336,12.44463,6.814857,2.325433,6.353142,0.9118277,0.5211958,12.43944,-1.863247,13.14485,2.299364,-1.231805,-4.809741,12.36106
0,278,13.95233,14.68126,8.170253,12.8477,12.12134,12.3551,19.13363,15.30572,8.678784,11.80819,8.209822,7.128041,16.6172,3.071421,20.11388,8.287161,3.56348,0.287681,17.74128
0,279,12.46893,14.92809,6.743038,12.48635,11.69383,11.77363,19.6937,14.74581,6.637607,13.01618,7.057644,6.307899,15.97857,1.963128,20.42278,7.491883,1.666861,-0.20669,18.37937
0,280,9.524577,12.68272,1.87244,9.15335,8.664731,8.420807,17.535,11.23866,3.598366,10.13042,2.081227,3.264756,15.63926,-1.793637,17.4226,4.108719,-0.4338566,-4.212799,16.87297
0,281,6.457079,10.26343,1.605271,7.72421,6.76296,7.215105,14.99728,10.24899,2.254359,7.577549,1.707261,0.4395105,11.9146,-3.306349,14.8325,1.756343,-4.045914,-5.451434,11.83132
0,282,10.66696,12.46919,5.588151,9.841213,8.38662,9.483643,16.4049,12.21247,5.185766,11.48177,4.726895,3.602329,15.648,-0.06121349,17.70656,6.096146,-0.4616466,-2.36582,15.58276
0,283,7.373187,9.221096,1.065412,6.057948,4.504177,6.014531,12.62137,8.314888,2.799063,6.538598,0.8697999,-0.6886051,10.61407,-4.079504,15.23568,1.518099,-4.747763,-6.886385,11.604
0,284,4.950453,7.941736,0.9215381,6.092801,4.868263,5.696042,11.74795,8.483684,0.9650592,3.703779,2.282211,-2.068569,8.038589,-4.580263,12.9828,0.6699868,-6.811272,-7.001718,8.427971
0,285,11.60979,13.54229,6.840179,11.23073,9.952089,11.21153,17.58158,14.21306,7.939681,11.06821,5.825495,4.150497,15.68873,1.26079,18.677,7.818991,1.200935,-1.645351,16.74619
0,286,11.26128,11.91233,5.374005,9.498619,8.170642,9.406528,16.59484,12.04398,6.603731,9.695295,3.836509,3.211526,13.60836,-0.4255426,16.9874,5.955873,-0.6663018,-1.964803,14.43937
0,287,9.633504,10.05881,3.089522,7.767092,7.14411,7.032632,14.51437,8.607371,4.857674,7.491361,3.283114,0.8935955,10.19307,-1.178243,14.73265,2.45888,-1.907055,-3.020561,11.92559
0,288,14.15598,13.75789,7.308839,11.06426,10.28588,10.0505,17.58218,11.14524,9.132966,12.22187,5.000082,4.796534,16.36068,2.606031,19.4927,7.406708,3.542001,1.157916,17.15394
0,289,14.97322,13.06621,5.399133,10.20792,9.733172,9.867067,17.24751,10.87829,8.978448,10.39072,5.499171,5.152347,14.46223,2.587473,20.50676,7.109404,1.251643,3.003263,16.5716
0,290,10.19084,9.791503,2.602726,7.458463,6.717566,6.971971,16.03781,8.044929,5.454804,7.442376,3.945536,2.728172,11.62091,0.1450918,16.28477,4.349102,-1.524552,1.029276,13.69829
0,291,1.349847,0.2550747,-4.957355,-1.960046,-3.023642,-2.339925,6.234337,-1.538437,-1.713366,-0.7921258,-5.900138,-6.623012,2.635058,-8.820727,5.972939,-4.46125,-8.906237,-8.069736,5.405108
0,292,-11.16097,-11.67872,-16.03885,-13.70474,-15.3014,-13.43009,-7.471417,-13.05336,-12.66661,-14.19746,-15.53967,-18.00412,-10.25013,-17.84894,-6.471853,-15.62833,-21.1941,-19.39718,-8.919228
0,293,-5.783106,-6.481646,-8.850823,-7.702085,-9.229547,-8.443606,-2.497486,-8.775309,-8.190147,-7.521707,-7.669446,-11.14421,-3.046449,-10.55685,-0.4256522,-9.102547,-14.72171,-12.35742,-2.507168
0,294,1.332931,1.335438,-1.912888,-0.4062343,-2.122169,-1.190813,4.546645,-1.782515,-1.551681,-0.2659934,-0.5854588,-3.849405,3.412007,-2.737512,6.902434,-1.362885,-7.38078,-5.433985,4.975138
0,295,9.927565,10.29225,5.87083,8.310358,6.633235,8.318225,13.58694,8.233793,8.21187,6.620627,8.138247,3.148496,10.80657,5.316265,15.2985,6.565808,0.5915442,3.727813,12.95948
0,296,13.85626,13.31654,9.527656,11.21524,9.658736,11.12076,16.04528,11.72674,10.97552,11.33355,9.223347,6.047493,15.03427,7.364239,18.88875,10.33969,4.114746,5.622128,18.20571
0,297,11.37866,11.28512,7.287926,9.603473,8.174902,9.656166,14.35121,10.77628,8.510579,8.609892,7.858182,4.88342,11.88593,5.339859,16.69919,8.035514,0.8888336,2.49684,14.63354
0,298,10.96346,11.29558,7.089087,9.638066,7.987327,10.01,13.90311,11.38628,8.28381,7.866589,9.090565,5.776253,12.59342,4.952097,17.44141,7.029056,-0.3001086,3.740584,14.45388
0,299,7.030588,7.212193,3.313987,5.375587,3.704436,5.21942,10.57599,5.916119,5.076481,5.207201,3.449812,1.320986,10.80084,0.4333791,13.47237,2.707688,-2.536981,-0.9659708,10.75075
0,300,10.19141,10.50865,5.736127,8.796619,7.773061,8.26757,13.82303,8.48891,8.15233,8.414959,6.811984,3.269687,12.60736,3.764228,17.57532,5.256163,-0.4482428,1.762002,12.94996
0,301,0.4792396,0.9076977,-4.474488,-1.208626,-2.689028,-1.266881,4.863103,-0.9304183,-1.672125,-0.8840635,-2.657805,-5.555542,3.299681,-6.213455,7.660541,-4.81822,-9.091404,-8.286335,2.901218
0,302,-10.08639,-8.731278,-13.96241,-11.03446,-12.70577,-11.45023,-5.338975,-11.51375,-12.00628,-10.08342,-12.06897,-14.5737,-4.986942,-15.73017,-2.693109,-14.55453,-18.80728,-17.71646,-5.840776
0,303,-3.351244,-1.307738,-6.282369,-3.725664,-5.547212,-4.07546,-0.5723061,-4.456422,-4.791564,-4.887292,-4.48108,-9.38788,0.248887,-8.7293,3.127099,-7.56184,-13.20238,-9.990326,-0.9792196
0,304,2.649704,4.187258,1.229873,3.398632,2.088063,3.164021,7.815619,3.813958,2.23775,2.867599,3.671402,-2.200891,7.537636,-1.138447,10.25852,0.1199667,-4.660317,-2.368557,6.21653
0,305,7.142826,7.178346,3.382724,6.424755,5.697435,6.387447,11.84415,7.53746,5.2319,6.726993,6.020146,0.8420898,11.97237,0.9113581,15.33794,3.638668,-0.131449,1.590091,9.715053
0,306,-10.87978,-11.72321,-13.76139,-11.98557,-13.37101,-12.03423,-6.283664,-11.89146,-11.98105,-13.23696,-10.14584,-17.36501,-7.56322,-14.79282,-3.725528,-13.83953,-18.98647,-15.93765,-10.2201
0,307,-18.61925,-19.12679,-19.84503,-19.13961,-20.68613,-19.37264,-14.38422,-19.3517,-19.42649,-19.23125,-17.03162,-23.95416,-14.32543,-20.5752,-10.5034,-20.17984,-24.91872,-21.52505,-16.2236
0,308,-19.62425,-18.67775,-19.89342,-19.39104,-21.84541,-19.30411,-15.25423,-19.05206,-20.60423,-20.13952,-17.34019,-24.85226,-14.70816,-20.75204,-11.52383,-21.09917,-26.21469,-21.61722,-17.13519
0,309,-25.66442,-23.70332,-23.23674,-23.50616,-26.23223,-23.33625,-20.71018,-23.05711,-24.96166,-25.8105,-19.83917,-29.29533,-19.82136,-25.16519,-16.94926,-25.14838,-32.34076,-24.6752,-23.66979
0,310,-15.67722,-15.29235,-13.70697,-14.8251,-16.88368,-14.60095,-11.70128,-14.71055,-13.90891,-14.21093,-10.76296,-19.08938,-9.095639,-15.78928,-8.311924,-15.78265,-21.93163,-15.08474,-12.31173
0,311,0.9271369,1.099082,1.445805,1.042266,-0.9966024,1.521202,5.319282,1.776606,2.604742,1.339732,3.064194,-4.153505,6.684731,-0.9387977,7.336619,-0.9339472,-5.922939,-0.2570096,2.829525
0,312,-9.857083,-9.853137,-9.502873,-9.47499,-10.68317,-8.536265,-6.253813,-8.509557,-6.236985,-9.946404,-6.328273,-14.90652,-4.906385,-9.310882,-3.667791,-10.86407,-17.03382,-10.24168,-7.81621
0,313,0.3274354,0.1516864,-0.4085734,-0.2117188,-1.468856,-0.6041074,3.098858,-1.340645,0.907645,-0.3155476,0.9335457,-5.077526,4.003497,-1.901714,6.36175,-1.312249,-6.10075,-1.389433,2.665072
0,314,16.32056,15.44363,12.55098,14.27854,12.85239,14.23717,18.6195,12.92789,16.13432,12.90904,15.15144,8.761461,18.71317,10.66371,23.2275,12.97553,7.104755,13.46282,15.23816
0,315,9.872211,9.97476,6.166742,8.171935,5.958736,8.563008,14.41349,6.971755,10.41562,7.675558,9.344858,3.352409,12.69965,4.695872,16.81414,7.117376,1.749647,7.369706,8.918651
0,316,7.173717,6.823159,2.807779,5.150205,3.793947,5.76579,11.15264,5.519403,7.435069,5.657768,4.128957,-0.3127618,8.881321,-0.1099891,13.09453,3.331003,-2.279405,3.589926,7.577578
0,317,3.930343,3.624736,-1.152674,2.280715,1.504207,2.881448,8.88794,2.895247,3.452632,2.132196,2.31255,-4.167864,5.134819,-2.601339,9.877175,0.3977141,-6.278637,1.167645,4.426042
0,318,7.886196,7.601137,3.117367,6.074942,5.15344,6.619286,12.03341,6.661727,7.843258,6.356651,4.832075,1.236073,9.726744,0.2432738,14.06977,4.711408,-0.6899534,4.170193,8.958189
0,319,6.748152,7.106685,3.357948,5.774849,4.355713,5.9021,11.47558,5.707351,6.56379,5.582889,4.610247,0.8508319,9.783336,-0.5431129,12.91115,3.798993,-1.11707,2.892317,6.396445
0,320,3.748753,3.932541,-0.9014568,2.499627,1.751813,2.217205,7.538803,1.389678,3.551902,-0.01708132,1.065199,-4.50738,4.908752,-4.429091,9.225684,-0.6224704,-6.412389,-0.01837307,1.91673
0,321,-9.504365,-8.604694,-12.18022,-9.569257,-10.33725,-9.905074,-5.015003,-10.42974,-8.680484,-10.86783,-10.60176,-15.92542,-7.11846,-15.0942,-2.848734,-11.68363,-18.23585,-12.73649,-8.095929
0,322,-2.765232,-2.66922,-7.140575,-3.97375,-4.754889,-3.139572,0.9664114,-3.502971,-1.457726,-5.637477,-3.871237,-10.07944,-1.753038,-8.126447,2.750012,-5.101918,-11.74286,-6.34714,-3.07724
0,323,-5.313224,-6.096069,-9.710326,-6.861066,-7.870797,-6.421642,-0.7865717,-6.853569,-5.063106,-9.665936,-5.506932,-12.29344,-5.283148,-11.58647,-0.2503571,-9.558056,-15.18399,-7.57695,-6.835884
0,324,-7.27348,-6.981067,-10.66109,-7.911158,-8.628458,-8.163441,-3.176438,-9.503131,-6.653007,-9.528522,-6.517782,-13.98257,-6.437897,-13.16772,-1.409551,-10.32148,-16.19361,-8.48562,-7.291881
0,325,1.957783,2.140909,-3.365643,0.5654876,0.2023815,0.5635178,4.933797,-0.7326382,1.868545,-2.762099,1.207817,-6.256597,0.7248503,-4.684408,6.483152,-2.042652,-9.027855,-0.2047045,0.8714084
0,326,-2.469147,-2.894327,-7.50574,-4.040432,-4.548331,-3.994202,1.036206,-5.126201,-2.84815,-7.274958,-1.865413,-10.2346,-3.045498,-8.394463,1.325837,-6.654821,-14.38699,-4.93159,-3.387131
0,327,-6.743754,-6.837783,-10.90368,-7.333659,-7.294206,-7.6516,-2.755962,-8.605718,-6.662524,-10.93923,-5.527564,-12.89664,-6.915484,-11.40925,-2.083448,-9.548145,-17.30623,-8.101867,-6.442524
0,328,-11.19018,-10.05851,-13.94026,-10.71273,-11.64891,-10.67606,-6.837126,-11.58907,-10.81668,-15.39643,-8.209171,-16.46561,-12.25708,-14.93961,-5.403532,-13.56226,-20.97933,-10.95568,-12.22635
0,329,-9.130785,-7.800759,-12.264,-8.877204,-10.07252,-8.589599,-4.820694,-9.529485,-8.627118,-13.53334,-6.004111,-13.47762,-9.869224,-13.22392,-4.431643,-11.80751,-19.22183,-11.0322,-10.19766
0,330,-10.52062,-9.707092,-14.38853,-11.31959,-12.93365,-9.887652,-6.331643,-10.49726,-9.246173,-14.24353,-7.210208,-15.97665,-11.15032,-15.40279,-7.244916,-13.80374,-21.229,-12.7152,-11.21973
0,331,-4.170308,-2.458198,-7.671305,-4.201333,-5.935493,-2.687817,-0.6043763,-3.691643,-1.433611,-10.16765,-0.176092,-9.612734,-5.821606,-9.456705,-0.4590929,-8.018044,-16.09566,-4.732225,-6.22427
0,332,-3.862991,-2.920269,-8.350572,-4.698096,-5.8016,-3.289251,-0.2716644,-4.116501,-0.9941018,-8.402314,-2.481854,-8.321829,-3.908433,-9.340729,0.3247717,-8.950369,-14.7929,-4.801022,-4.771734
0,333,-4.983519,-4.673461,-10.52017,-6.681571,-7.859726,-5.002214,-1.935191,-4.969204,-3.642581,-10.0785,-5.458607,-11.10003,-5.673591,-10.80494,-0.7125068,-11.01881,-15.84476,-8.091602,-6.266541
0,334,1.12056,1.646614,-4.61745,-0.6988144,-2.2484,0.7786942,3.705978,0.6019576,1.451174,-4.850392,-0.3757305,-5.705205,-1.634048,-5.052325,5.39527,-5.987251,-11.88441,-2.624341,-2.173417
0,335,7.001929,7.513522,2.023499,4.90958,2.989331,5.959932,9.698665,5.475802,7.734354,2.649188,4.250066,0.6455829,5.621299,-0.6942992,11.36191,-0.004676464,-4.477812,2.030375,5.671669
0,336,-10.31001,-8.723042,-13.64999,-10.92908,-13.18601,-9.580371,-6.316429,-10.18351,-7.763679,-14.55238,-10.58797,-15.73257,-11.36504,-15.84991,-5.964366,-15.44616,-20.93352,-14.25237,-12.49297
0,337,-21.55164,-19.32287,-21.28834,-20.67341,-24.0679,-20.08408,-17.71826,-21.18263,-19.13279,-26.05279,-19.09496,-25.05774,-22.1546,-25.0954,-15.97349,-24.0246,-31.61531,-23.88375,-24.24349
0,338,-19.32627,-16.43912,-18.74681,-18.20926,-21.26112,-17.90076,-15.38165,-19.81439,-15.61893,-22.1653,-16.73169,-21.69171,-18.44786,-21.28797,-14.48458,-20.8028,-28.03667,-21.37627,-19.20858
0,339,-8.331246,-6.594311,-9.328255,-8.302115,-11.17056,-7.714039,-5.369143,-9.369863,-5.612778,-13.33536,-6.218916,-12.38059,-9.613112,-12.3047,-4.254583,-11.93106,-19.7778,-11.21442,-10.43137
0,340,-19.46898,-16.07853,-17.13816,-17.06904,-20.4735,-16.07034,-14.50892,-17.04052,-14.32725,-21.95166,-14.90144,-20.87544,-19.78025,-20.21203,-13.56138,-20.93218,-28.50622,-19.42264,-20.01929
0,341,-6.08935,-2.524873,-3.686578,-4.078238,-7.823529,-2.605994,-1.695789,-2.922311,-1.153235,-8.115991,-2.653513,-7.143515,-5.706367,-6.805153,-1.3293,-8.001489,-14.06687,-6.088099,-5.341744
0,342,4.72368,6.697581,3.290247,4.293635,0.5865062,6.54167,7.609333,6.447716,7.91906,-0.286387,5.438005,1.344257,2.434225,0.4570441,9.93364,0.9960606,-6.181929,3.329284,3.710653
0,343,-7.289508,-6.197188,-8.166543,-7.63144,-10.77791,-5.719004,-4.589499,-5.48697,-4.586799,-11.82791,-5.466591,-9.308988,-8.282626,-10.72218,-2.386694,-9.625443,-18.56166,-9.417412,-7.129513
0,344,-9.773236,-8.065451,-11.06265,-9.550624,-12.10996,-7.525646,-5.729598,-7.507436,-5.49876,-14.24138,-7.491153,-9.76208,-9.516925,-11.91104,-5.666589,-11.36986,-21.8275,-10.96475,-8.129656
0,345,-16.70424,-14.90345,-18.89625,-17.1379,-20.56312,-14.40904,-12.20567,-15.41463,-11.20369,-22.43125,-14.93857,-16.39919,-18.37916,-17.5218,-11.86957,-18.81533,-28.58899,-16.52673,-17.84658
0,346,-13.76806,-11.74142,-14.99938,-14.1538,-17.68133,-11.75046,-10.44345,-12.99954,-8.418368,-17.52638,-12.5735,-12.48729,-12.98162,-13.30443,-8.43654,-15.54167,-23.54969,-14.10235,-13.91108
0,347,-12.68345,-10.1507,-14.78416,-13.38947,-17.12721,-10.69716,-10.0133,-11.78759,-7.676032,-17.49458,-12.07269,-13.38939,-13.46983,-14.382,-8.718589,-16.05904,-23.37761,-14.42995,-13.38181
0,348,-27.14553,-22.73264,-25.47697,-25.00516,-29.33952,-22.86152,-23.05565,-24.34887,-20.05656,-31.96262,-22.39301,-24.68334,-28.35829,-25.2094,-21.28926,-28.75729,-37.00421,-26.49664,-27.16289
0,349,-18.68576,-15.77262,-16.78701,-16.78437,-20.14416,-14.88587,-14.48475,-15.625,-12.11681,-20.94923,-13.87255,-15.38229,-19.03238,-16.572,-11.31796,-18.95456,-27.9121,-18.51357,-16.27207
0,350,-11.53079,-9.392746,-10.07565,-10.3078,-14.1647,-8.678412,-6.839722,-9.383628,-6.360741,-16.11759,-7.317031,-8.656331,-14.12503,-10.92104,-5.404814,-12.34686,-21.02369,-12.5491,-10.62739
0,351,-5.813292,-3.642742,-5.473654,-5.325041,-9.068527,-3.334872,-2.679066,-3.724275,-2.110498,-9.781055,-1.961696,-3.511362,-7.629281,-6.330609,-0.5035979,-8.187159,-16.52154,-6.015303,-4.445547
0,352,2.275154,3.454777,1.237574,1.237747,-2.419767,3.370171,4.457987,3.823596,4.297826,-1.826505,2.908136,3.22446,0.1783405,-1.066483,6.382343,-1.561643,-7.875492,1.384575,4.843624
0,353,-2.134496,0.03465897,-4.314917,-3.234195,-7.203198,-0.3051024,-0.6589392,-0.5231003,1.657254,-8.530243,-2.404686,-2.77278,-6.693319,-5.700853,1.471361,-7.027132,-12.73247,-2.552496,-2.906325
0,354,-2.348914,0.07247221,-2.9124,-2.462542,-6.278706,-0.3965374,-0.2915694,-0.8522962,1.33497,-7.911798,-1.935376,-2.164055,-5.254979,-4.567706,2.03347,-5.201675,-11.70037,-2.459372,-2.400434
0,355,3.081135,4.764555,2.326038,2.368835,-1.731693,4.768414,4.59529,5.752073,5.934534,-4.264091,1.162798,1.244625,-0.7566082,-1.381857,7.473248,-0.920305,-7.530602,1.918884,2.822272
0,356,-14.12933,-11.15359,-13.75182,-13.69925,-18.69238,-10.39229,-12.50213,-8.993042,-10.67085,-22.44541,-12.30725,-17.02258,-19.27082,-17.34432,-9.556553,-18.08375,-25.4164,-14.08458,-15.58574
0,357,-16.51145,-12.23853,-13.56583,-13.88743,-18.50934,-11.10051,-12.16578,-9.616866,-10.97915,-22.49567,-13.18925,-16.9836,-19.86541,-15.4453,-11.17036,-18.33613,-25.50662,-14.35252,-15.26498
0,358,-7.106389,-4.446439,-5.145426,-5.412921,-9.11335,-3.339324,-2.196559,-1.943724,-2.574502,-11.99704,-5.72649,-7.830543,-10.67134,-6.462251,-1.152984,-9.247386,-16.16612,-5.208278,-5.010496
0,359,-4.443681,-3.844926,-4.348231,-4.667465,-7.490468,-3.043593,-2.235324,-2.471912,-0.722743,-12.43119,-4.608606,-6.56067,-9.37979,-5.825059,-0.7165631,-7.826762,-13.72814,-1.880573,-3.670223
0,360,-9.159696,-8.015701,-8.529369,-8.868616,-11.57054,-8.345726,-5.574695,-8.329984,-6.343465,-15.37493,-10.3304,-10.20159,-12.34732,-10.60177,-4.313137,-10.35394,-17.07221,-5.965775,-6.103142
0,361,-11.6628,-10.44425,-11.36674,-10.65342,-12.89083,-10.57309,-7.30857,-9.748551,-10.34697,-19.46907,-13.74648,-12.85051,-17.49647,-14.32182,-6.599597,-13.70507,-21.7029,-9.182791,-11.22545
0,362,-19.21888,-18.80366,-19.48167,-19.21648,-21.706,-18.17507,-16.488,-17.63803,-16.94053,-27.53708,-20.99382,-21.66765,-25.65365,-21.2413,-14.44729,-22.12747,-30.73913,-15.60216,-20.84402
0,363,-22.87661,-22.32721,-21.84276,-22.47587,-25.15554,-21.42403,-19.35504,-20.83423,-19.37987,-29.88249,-23.6729,-24.55784,-27.98131,-23.42845,-18.07411,-25.23,-32.45219,-18.9562,-22.29663
0,364,-20.2101,-18.86442,-19.51828,-19.44073,-22.191,-18.51019,-16.26894,-17.98548,-17.01839,-29.0209,-21.10781,-23.23105,-26.92373,-20.93785,-16.81883,-22.88442,-31.78538,-16.46159,-20.16719
0,365,-17.12755,-14.46018,-15.53554,-15.04711,-17.68004,-14.38683,-13.07343,-13.74216,-13.64906,-25.38778,-17.52216,-19.4052,-23.59609,-18.06047,-12.95047,-19.19687,-29.06142,-13.09484,-16.84041
0,366,-17.19349,-15.97101,-17.95516,-17.48496,-20.39374,-16.53966,-14.19439,-16.04575,-15.51412,-26.59258,-20.96683,-22.51238,-25.09952,-20.44095,-14.45028,-20.01532,-29.87071,-14.28476,-17.76361
0,367,-19.96647,-18.56486,-19.88848,-20.12127,-23.58014,-18.59094,-17.58883,-18.66379,-16.67605,-30.38922,-20.61072,-25.04059,-28.15522,-21.65741,-18.11709,-22.17377,-32.97694,-16.05576,-20.31572
0,368,-18.35662,-17.17042,-16.45071,-18.02743,-21.5893,-16.73235,-15.77624,-17.11387,-13.25399,-27.52183,-17.87376,-21.74679,-26.15672,-18.35239,-16.27166,-20.94722,-30.90202,-14.97716,-17.81113
0,369,-19.74673,-17.47808,-16.20039,-17.58192,-20.81572,-16.51419,-16.67063,-15.72211,-14.86313,-27.95421,-17.97464,-22.00695,-26.06002,-18.94773,-15.81019,-21.67776,-31.49359,-15.23738,-18.10528
0,370,-12.81644,-11.33935,-10.05741,-11.04133,-13.91901,-9.888129,-9.959484,-8.90252,-8.300282,-22.44512,-11.08129,-15.80603,-21.30359,-12.63284,-9.456796,-16.21107,-25.72571,-8.457465,-13.12979
0,371,-7.75148,-6.070802,-6.299252,-6.824511,-10.12639,-4.851655,-4.693751,-3.280264,-3.905454,-16.05424,-7.659697,-11.48317,-15.95101,-8.741867,-4.20526,-11.59652,-20.24894,-3.84174,-7.121129
0,372,-0.9170538,0.7133198,-1.402483,-0.3248604,-3.007164,1.674403,2.564102,3.121265,2.2452,-10.07653,-1.586782,-5.894367,-9.527215,-2.384158,2.797941,-4.970924,-13.3079,3.23777,-1.303895
0,373,-1.1353,0.344181,-3.136526,-1.509168,-4.712618,1.398458,2.071996,2.663504,2.321717,-12.11929,-1.979583,-5.422517,-9.841662,-3.004906,1.549503,-5.207448,-15.07045,3.0722,-2.414297
0,374,-3.585794,-3.576511,-7.444617,-5.309232,-6.976496,-3.103593,-0.9003867,-2.592891,0.07029945,-13.31518,-7.240403,-8.90347,-11.35023,-7.812993,-2.20383,-8.355646,-18.07745,0.05519943,-3.90336
0,375,-8.456097,-7.558598,-12.08269,-9.735822,-11.53567,-7.590446,-6.302355,-6.821814,-4.804045,-19.11059,-13.72869,-14.14832,-17.03007,-13.02725,-7.267084,-13.21675,-22.19863,-4.969539,-9.191102
0,376,-15.34989,-14.13448,-17.05483,-15.49323,-17.15402,-13.67888,-12.51689,-13.19728,-10.81714,-24.23322,-17.71023,-19.85925,-24.44829,-17.35684,-13.63118,-18.56901,-26.3199,-11.1047,-14.62735
0,377,0.8969721,0.3853704,-2.130482,-0.9957374,-2.941285,1.09843,2.436557,2.140183,3.28309,-8.530632,-2.696656,-4.87517,-7.142353,-3.127838,3.224494,-2.641092,-10.67505,3.595109,1.217728
0,378,4.46605,2.289969,-0.7159474,0.9750642,-0.7915782,3.439193,4.839169,4.811593,4.941894,-7.19432,0.4594383,-3.420131,-7.055721,-2.809033,5.326252,-1.098355,-10.77296,5.565391,1.969036
0,379,-3.109465,-3.810379,-6.225307,-5.019145,-6.641962,-3.266399,-1.977054,-1.79247,-2.313426,-12.09537,-6.878702,-10.26414,-12.46328,-10.32039,-1.785904,-6.677628,-16.72835,-0.676344,-2.838269
0,380,-4.585427,-4.325824,-7.195662,-5.379009,-6.900614,-3.441112,-1.140979,-2.009862,-1.826596,-11.34219,-7.408309,-9.804207,-12.2415,-9.747832,-0.1580945,-6.801995,-16.49093,-0.9787248,-1.919018
0,381,-2.90522,-2.945797,-6.017646,-3.581398,-4.93766,-1.103226,0.5348651,0.3371599,1.435579,-12.77758,-3.790496,-9.499365,-12.17897,-8.151897,0.5805132,-6.424346,-16.47822,0.2071099,-2.51741
0,382,-4.910631,-4.947678,-6.279152,-5.399824,-7.462579,-3.069092,-1.523763,-1.220183,-0.6538708,-13.61342,-5.004803,-10.73456,-12.80058,-10.47009,-1.542994,-8.548833,-17.44557,-2.872718,-2.631448
0,383,-2.072384,-1.838295,-4.382513,-3.120796,-5.461211,-0.2406982,0.4096963,1.556382,2.164802,-10.84388,-3.398849,-7.91685,-10.19181,-7.950461,1.776525,-6.328433,-14.72453,0.3872612,-0.2767808
0,384,-13.11481,-11.91037,-14.10678,-13.09719,-15.8625,-10.00557,-10.64885,-8.426634,-8.66478,-21.74411,-11.70383,-18.52697,-21.65221,-16.41892,-9.239684,-16.35372,-25.23966,-8.986343,-12.41605
0,385,-12.98528,-11.54876,-13.33683,-13.21376,-16.49906,-10.48944,-10.91825,-9.503314,-8.822406,-20.55734,-12.12106,-17.613,-21.18671,-15.49279,-9.03777,-15.59108,-23.40511,-9.620611,-10.75046
0,386,-15.28934,-13.79359,-15.8696,-15.52766,-19.0126,-11.7434,-13.82048,-10.34171,-10.33549,-23.34813,-13.11154,-19.32204,-23.20414,-17.89675,-11.74601,-18.25837,-26.21855,-10.45505,-14.87393
0,387,-18.17536,-15.85573,-17.6855,-17.96634,-22.50655,-13.85092,-16.21874,-11.91049,-14.03988,-25.54023,-15.72208,-21.75601,-25.17707,-20.50573,-14.586,-20.1396,-30.59981,-13.46422,-17.84689
0,388,-18.87791,-15.21291,-16.55817,-17.22229,-21.55141,-13.68148,-17.20308,-11.34854,-13.93578,-24.83108,-17.16286,-20.6671,-23.9006,-20.33945,-13.99129,-19.1329,-30.14231,-14.90219,-15.39609
0,389,-18.8207,-14.91578,-16.85859,-17.01841,-21.5958,-13.13561,-15.41399,-11.39205,-12.58754,-25.21082,-15.68862,-21.71617,-25.17883,-18.81966,-13.91022,-20.23826,-29.12529,-13.90168,-16.89058
0,390,-7.896269,-4.960424,-7.336681,-7.643989,-12.50734,-3.532418,-6.058455,-2.226508,-2.674787,-15.91866,-5.663549,-12.13722,-14.85839,-8.559615,-4.44042,-10.34568,-17.90075,-4.202894,-7.621326
0,391,2.578772,4.099283,1.958535,1.628008,-2.773038,6.256734,3.507846,8.399828,7.573754,-5.620793,2.417041,-2.338408,-5.459988,0.3408918,5.908389,1.060801,-7.642194,4.689142,3.431043
0,392,-6.688341,-4.860507,-6.701287,-5.949099,-9.063615,-2.047752,-4.171941,-0.2355178,-0.6678897,-14.00264,-3.900766,-9.581587,-14.08011,-7.330834,-1.650717,-7.323589,-17.52915,-3.334789,-5.616168
0,393,0.394275,2.257959,1.31282,1.183359,-2.204177,4.412281,3.390568,5.670287,6.168706,-5.620695,3.326441,-1.50165,-4.37784,0.2963609,5.450223,0.09705842,-9.301758,3.994909,2.875851
0,394,1.383202,2.941923,2.00861,1.668115,-1.922317,4.214153,4.269541,4.923832,6.44287,-6.011154,3.068347,-1.13667,-5.108138,-0.06858245,6.017073,0.09868723,-8.604129,3.98972,3.715637
0,395,-0.4404689,1.210776,0.8429635,-0.1357652,-4.429127,2.470973,2.632772,2.85309,4.64468,-8.235703,1.9498,-2.923756,-6.869281,-1.185573,3.502062,-2.425781,-11.01989,2.156335,-0.009095594
0,396,1.03273,4.032353,3.618727,3.028002,-1.037526,5.494767,5.910056,7.575305,5.87579,-4.970014,3.117333,-0.3668518,-2.618687,0.2364704,6.474129,0.128855,-7.617764,3.989928,4.643179
0,397,10.8555,11.3451,9.066304,9.470992,5.911149,12.4285,12.62871,14.91272,13.10493,-0.01491308,8.127583,5.294031,2.873075,6.654557,12.80018,5.48838,-0.8992824,10.69654,10.8228
0,398,2.959583,4.926462,0.9826802,2.62499,-0.8574046,5.31571,4.284929,7.259965,4.963056,-9.612502,1.227733,-2.945031,-6.787442,-0.2417512,5.243026,-2.605039,-9.562114,2.940323,1.104063
0,399,-5.996934,-3.247096,-6.165427,-4.658713,-7.371125,-2.502597,-4.398763,-1.133063,-2.319501,-16.27361,-4.106733,-9.67213,-12.65793,-7.642025,-2.716755,-9.437396,-17.01897,-4.57766,-5.819729
0,400,-2.230808,-0.6091458,-1.467859,-0.7666954,-3.785766,1.909986,0.5386102,3.942645,2.456537,-13.59199,1.713065,-5.233247,-8.693992,-3.624363,0.7980587,-5.375865,-13.85039,-0.8564034,-3.70055
0,401,-0.6052978,1.523952,-0.3347298,0.03489485,-4.421596,3.600636,2.007246,5.838702,3.082209,-11.95917,2.596358,-4.205364,-8.525455,-2.278575,1.897147,-4.6903,-13.18864,0.2047107,-2.667259
0,402,1.209617,4.287877,1.081565,2.261483,-2.010096,5.357641,4.225821,7.25426,3.586759,-8.274657,4.467906,-2.122504,-5.445827,-0.8332198,5.0343,-2.125865,-10.99326,3.113448,0.5906256
0,403,-3.516424,0.2794248,-4.449348,-2.498782,-7.233797,1.305903,-0.5633601,2.814443,-0.08637315,-14.82156,0.1002665,-7.8346,-11.59809,-5.680777,-0.498642,-6.940272,-15.51515,-2.330282,-6.37601
0,404,-14.63706,-11.36971,-14.65416,-13.99507,-18.82475,-10.46044,-12.62213,-9.601991,-10.07205,-25.98084,-12.16782,-18.52573,-24.31876,-16.85262,-13.57362,-18.75585,-26.30516,-14.18814,-18.69423
0,405,-13.13664,-11.43097,-13.95081,-13.5602,-17.54612,-10.46721,-12.64187,-9.338754,-10.24525,-24.74072,-11.392,-18.24692,-22.92226,-15.02451,-12.0695,-18.1613,-24.4092,-12.01869,-15.7136
0,406,-12.6948,-10.33693,-12.48179,-12.06663,-16.93202,-8.978665,-11.56394,-7.47,-10.83635,-27.01917,-7.833896,-17.14007,-22.03454,-12.50105,-10.58244,-17.75985,-24.56597,-11.00937,-16.89307
0,407,-10.08893,-7.305416,-8.114361,-8.534309,-13.07284,-6.377648,-8.40794,-5.282913,-7.038791,-22.76639,-5.827598,-13.08723,-16.99301,-9.520597,-6.740412,-13.18338,-20.59534,-6.909247,-11.38697
0,408,-4.883573,-3.419529,-3.661149,-4.346987,-8.789507,-1.796168,-2.795069,-0.4104145,-1.460109,-17.56652,-1.713042,-8.286552,-14.80077,-5.811791,-2.96149,-9.4701,-15.37929,-3.565123,-7.498165
0,409,-5.80142,-3.031815,-4.045956,-4.169757,-8.886689,-1.734515,-3.217507,-0.3583516,-3.057329,-18.67344,-1.703077,-7.955987,-15.50029,-5.45856,-3.557691,-10.06396,-17.35674,-3.143959,-9.589974
0,410,5.235844,7.347176,6.602513,6.265039,2.21343,7.952095,6.785874,9.428145,5.884592,-5.496112,7.948545,2.83865,-3.840857,4.341998,7.537341,0.803279,-6.222815,7.194264,3.289031
0,411,4.931256,5.723187,4.061476,4.257473,0.4052848,6.102914,5.109488,7.546625,4.885066,-8.637225,5.628448,-0.6317765,-6.216632,1.130798,6.128185,-1.565604,-8.587498,4.509009,1.529329
0,412,-3.343925,-1.045207,-2.178668,-2.552128,-7.14495,-0.5465149,-2.46133,0.6066228,-1.506904,-16.51067,-1.452276,-8.277092,-14.31349,-5.543198,-1.676831,-7.728333,-15.58881,-3.921241,-7.4392
0,413,-0.4119967,2.027292,0.5871187,0.4873015,-3.77762,2.095482,0.8116805,3.420599,-0.05893949,-11.36449,2.324476,-3.759305,-9.837983,-2.803073,1.496269,-4.366914,-11.11104,-1.874835,-2.126335
0,414,-11.19877,-7.593515,-8.686119,-8.077029,-11.87462,-6.678518,-8.055918,-5.534897,-9.222264,-22.48785,-4.967097,-13.3285,-19.97964,-10.2309,-7.293709,-12.95751,-20.97215,-8.631119,-12.94625
0,415,-15.23926,-11.1985,-10.44943,-11.07275,-15.06423,-9.657981,-12.37645,-8.400334,-12.35413,-25.64424,-6.720424,-15.91151,-23.73782,-12.30894,-11.77635,-15.93904,-24.8243,-10.73879,-16.12531
0,416,-14.61761,-12.25363,-10.86508,-12.37619,-16.62783,-10.55036,-13.01726,-9.009857,-12.62267,-24.95391,-8.937613,-16.2995,-23.37339,-11.71513,-12.61073,-17.3014,-25.67595,-12.58764,-17.09333
0,417,-5.683527,-3.511934,-3.61675,-4.22481,-8.315517,-1.585012,-6.513637,0.5680884,-5.381494,-17.4961,0.680091,-10.09956,-15.58279,-3.554973,-4.926396,-9.725874,-18.73132,-5.03226,-10.08291
0,418,-1.142009,0.8274665,1.237076,0.8276912,-2.541255,3.052911,-1.451385,5.26521,-0.1480716,-11.57925,5.572241,-4.054583,-9.130023,0.445037,1.264835,-4.865392,-12.52543,0.01730003,-4.31458
0,419,-1.456009,1.380694,1.50296,1.455642,-1.929162,3.357767,-0.4048192,5.079475,1.27282,-12.21717,5.35788,-3.795645,-9.330125,-0.2913571,2.058351,-3.997883,-11.99344,-0.2534873,-4.057974
0,420,6.417373,9.831276,8.507004,9.054543,5.282897,10.86896,7.309598,12.36237,7.84986,-5.158939,12.74887,2.932156,-3.128987,5.09322,8.341514,1.570421,-4.856136,7.00102,1.720013
0,421,11.857,12.94088,11.89567,11.92178,8.874682,14.2579,9.996501,16.0416,12.95998,-0.2824999,14.5606,7.829834,1.611556,9.446401,11.0757,6.061686,0.4143198,10.48098,7.62289
0,422,8.804476,9.450938,7.114486,8.502302,5.966033,10.50046,7.160015,12.61544,8.495938,-5.877693,10.56868,2.704556,-3.97986,4.991057,8.36586,2.392861,-3.582773,5.132904,4.164522
0,423,4.431753,6.336123,2.417397,4.335306,0.7498617,6.534009,3.175171,7.581959,3.385533,-11.35172,7.815145,-1.983616,-8.207409,1.738943,3.262365,-1.09471,-9.682314,1.287864,-2.670677
0,424,14.16049,13.97318,11.16552,12.47792,9.328038,13.98994,13.04569,15.33941,12.07191,-1.160773,14.00879,8.049152,2.060091,8.580498,12.86143,6.344622,-0.4567645,8.575551,7.466752
0,425,17.47314,18.60141,14.87259,17.23549,14.56875,18.55882,17.11537,20.67494,15.17816,2.769356,17.427,10.63285,5.764545,10.97083,17.22585,10.45786,2.373694,12.26749,11.33072
0,426,19.52213,21.87809,16.46053,19.11779,16.16495,21.42477,18.29445,23.29955,18.75513,7.056915,18.60692,13.14658,8.567633,13.92757,19.56904,13.40204,5.105999,14.39696,15.29432
0,427,0.9423171,3.441964,-2.267877,0.680765,-1.958026,3.07073,0.3017192,5.135165,1.162262,-10.716,-0.7824464,-3.183629,-8.549613,-5.092203,1.263414,-5.074598,-12.78516,-3.842628,-1.859131
0,428,-17.19813,-14.00497,-19.60183,-16.58562,-19.72804,-14.38318,-17.48015,-13.11521,-16.54589,-30.8933,-15.47947,-21.9529,-28.02044,-22.28002,-16.74319,-23.81339,-30.87709,-20.65552,-21.94232
0,429,-14.02808,-10.07889,-13.47292,-11.97398,-15.78327,-10.58762,-12.90272,-10.09413,-12.57829,-25.25229,-9.557401,-17.43121,-23.39707,-17.03234,-11.5511,-18.82613,-26.38659,-16.79756,-17.28333
0,430,-16.00644,-13.50042,-13.96898,-15.05537,-19.3082,-13.46472,-17.00107,-12.78981,-14.67114,-26.17274,-12.36089,-18.49347,-25.07344,-18.02291,-16.13067,-21.13193,-28.66022,-19.13683,-19.42695
0,431,-10.27774,-6.845735,-8.560696,-8.829411,-13.48642,-6.385444,-11.95095,-5.963964,-8.232721,-22.68793,-4.487566,-13.02871,-19.99298,-11.23219,-10.65527,-15.28961,-23.41092,-11.40669,-16.70336
0,432,-9.654441,-4.387266,-8.357434,-7.591652,-12.59525,-4.873689,-10.83047,-4.972007,-7.384067,-20.26849,-3.406177,-11.81487,-17.36653,-9.621085,-9.246691,-13.17221,-22.44866,-11.78685,-15.13785
0,433,-12.8397,-9.555698,-12.19517,-12.23228,-16.98725,-9.638438,-14.31541,-9.015145,-12.25607,-23.55214,-9.327691,-15.061,-21.17217,-12.91231,-13.48916,-17.29574,-26.07621,-15.39062,-18.6289
0,434,-8.017078,-3.860761,-6.784819,-6.985525,-12.11502,-4.122177,-9.972167,-3.870691,-6.008848,-19.64726,-3.98939,-9.405056,-16.84543,-6.976955,-8.672707,-12.01029,-20.28871,-9.347825,-13.04173
0,435,-10.47572,-6.7547,-8.929159,-9.4847,-14.15003,-6.729461,-12.44927,-7.015307,-7.663962,-19.86836,-5.669672,-10.66912,-16.41858,-7.477185,-10.50299,-13.03686,-20.61012,-11.52281,-14.6928
0,436,-6.830799,-2.456203,-5.075427,-4.879282,-9.566843,-2.394747,-7.152902,-2.933287,-4.365907,-15.98692,-0.4065703,-6.598163,-13.18508,-3.934423,-5.008247,-8.095387,-17.31484,-5.740705,-11.50201
0,437,-6.092144,-1.04932,-5.501019,-4.468083,-9.180952,-1.619632,-6.989385,-1.784868,-4.724106,-15.27154,-0.5761042,-6.64723,-14.37152,-3.172947,-5.051606,-8.567995,-16.4732,-5.675409,-9.987004
0,438,-13.58799,-10.05759,-12.70797,-13.16132,-17.74685,-10.90575,-15.9627,-11.30455,-11.99452,-23.05626,-10.05437,-14.3064,-20.19771,-11.61081,-13.15609,-17.48262,-22.51207,-14.78113,-16.4291
0,439,-15.37305,-12.24372,-15.74319,-15.60957,-20.30019,-12.78307,-18.50259,-13.49037,-14.37444,-26.88607,-11.00735,-17.19971,-23.22475,-12.11911,-15.80075,-19.27543,-26.33384,-15.64283,-20.6233
0,440,-12.33778,-9.240376,-12.09673,-12.3513,-16.61913,-9.497247,-15.82761,-10.2543,-10.77579,-22.37796,-7.37631,-14.01601,-20.16338,-8.803171,-13.92118,-15.42833,-23.1678,-11.93514,-16.96
0,441,5.055068,7.91256,5.631918,4.570288,-0.01896871,6.756336,0.8904854,6.438991,4.617956,-4.278851,6.873025,3.153851,-2.21951,6.42506,3.738586,1.686143,-6.560679,4.259064,1.04923
0,442,14.03594,16.13205,13.25911,12.27021,6.902093,14.94046,10.49932,14.84139,12.68761,3.27052,14.15273,10.16084,5.758162,12.66899,11.80424,10.01457,1.590461,11.55102,7.832036
0,443,2.050075,4.982454,2.880481,1.380225,-4.352579,4.501157,-0.4816465,4.698943,2.780762,-6.641967,3.272293,0.7328767,-3.784128,2.305521,2.865098,0.9460852,-8.505934,1.059825,-1.18974
0,444,11.24576,14.56229,9.421698,10.07598,5.322362,12.75129,8.205281,13.02519,10.24299,0.4532597,10.54216,9.373837,4.58854,8.447814,9.605099,7.71956,-0.9095558,9.371305,7.991559
0,445,17.41777,20.07161,14.24785,16.05515,12.51418,17.97201,13.60682,18.54071,14.47846,4.748431,15.05209,14.00357,8.80374,12.961,14.20865,12.34268,3.858462,14.74898,11.67851
0,446,20.71087,21.7938,17.49195,18.41825,15.53701,19.72446,16.91849,21.09526,17.3858,9.715467,14.98972,16.71227,13.0121,13.9429,18.34735,14.23591,8.148435,16.95672,17.69947
0,447,14.39674,15.71252,9.117125,11.64877,8.844233,13.07194,10.58582,13.57975,11.24454,1.276453,8.715638,9.598178,6.082009,6.014822,12.50315,7.939305,1.292578,9.581683,9.86132
0,448,10.60229,13.96442,6.287323,9.771929,6.748283,11.17934,7.557986,11.02339,9.503845,-4.097007,8.03543,5.783223,2.446507,2.911093,9.795101,4.521844,-2.154,7.12377,5.089736
0,449,9.524597,11.03072,4.375426,7.195738,4.608327,8.347795,5.600402,8.898638,6.335383,-5.197104,4.524076,3.794206,1.309495,0.6725068,7.45419,3.113358,-4.216853,5.442177,4.974404
0,450,8.194858,10.65943,3.545453,6.658432,3.845224,7.005866,4.927886,6.537498,4.844602,-6.967205,3.509722,3.088122,-2.476042,-0.7165629,6.579041,1.742751,-5.266155,4.248785,2.435172
0,451,8.462718,10.65629,3.883413,6.190047,2.750513,7.177223,4.138121,6.539589,5.582314,-6.240292,3.816623,2.847998,-2.566316,-0.8517742,6.192872,2.32913,-4.361908,3.584652,2.308046
0,452,-2.570099,-0.5225291,-5.255095,-4.174318,-7.384622,-3.642431,-5.706247,-4.040264,-4.660339,-14.99377,-6.745539,-6.84804,-11.48167,-10.26423,-4.466133,-7.373422,-13.1568,-5.180929,-5.568923
0,453,14.10615,15.71378,8.895528,11.63572,9.03989,11.74359,10.80883,10.73348,10.93108,-0.2804174,7.735349,8.188985,4.519059,5.325315,13.26608,7.933123,2.185555,11.60728,9.526861
0,454,10.52249,12.19313,3.977649,8.108796,6.381731,8.566871,7.069857,8.503179,6.8212,-4.071125,2.958263,4.942881,1.669538,1.356134,9.755023,4.720607,-0.973709,8.04771,6.140143
0,455,0.8859143,3.96725,-6.165005,-1.466538,-3.959705,-0.2590643,-2.071632,-0.3327332,-1.888439,-13.65595,-7.599263,-5.334418,-7.698683,-8.472581,-0.0662358,-4.888177,-10.61606,-2.120396,-3.020148
0,456,17.79627,18.41331,6.700201,13.19535,11.78923,15.29309,14.01738,16.1947,13.63441,-0.4273006,7.161638,7.915353,4.561554,4.948759,14.25758,9.268085,1.714731,12.27699,10.22196
0,457,18.35124,17.96201,7.147547,13.25153,12.57244,15.22796,13.15336,16.49958,13.8859,0.8034021,7.872832,7.907237,5.034301,4.120193,14.17281,8.310433,2.966013,12.68813,11.41345
0,458,14.9081,15.1718,4.0089,10.27048,9.304329,11.82234,10.94942,12.63646,10.26822,-2.828275,4.36132,5.129056,1.944959,2.63726,11.26257,5.29986,1.683531,9.960557,8.108802
0,459,5.502211,7.45793,-3.981162,2.097116,0.2770844,4.198322,2.304223,4.67977,2.070626,-11.22448,-2.612933,-3.31799,-6.688179,-5.265459,2.180887,-1.290754,-7.244343,1.986067,-0.9691008
0,460,-2.491429,-1.108335,-10.88713,-5.262543,-6.0474,-4.162663,-4.879924,-3.823673,-5.603383,-17.06002,-10.06463,-10.32891,-12.08728,-12.47275,-5.259785,-8.439083,-14.34836,-5.332042,-7.158132
0,461,-9.299521,-8.519305,-16.48648,-11.78271,-12.8333,-10.76375,-11.18515,-10.20599,-11.37698,-26.52938,-16.13254,-17.48084,-20.70855,-17.12343,-12.40941,-15.58144,-20.85036,-11.71752,-14.47019
0,462,0.05635674,0.5305952,-7.35545,-3.227973,-4.903484,-1.867914,-3.197495,-1.098155,-3.250267,-18.11702,-7.167347,-10.01285,-13.70298,-7.063278,-2.92532,-6.585946,-11.52141,-2.535694,-4.792082
0,463,-1.123029,-1.591481,-8.501865,-4.749778,-6.092432,-3.684433,-3.940443,-2.707225,-4.46543,-18.31218,-8.721835,-10.483,-14.23705,-9.253231,-3.585123,-7.588486,-11.54073,-4.971137,-4.817144
0,464,-5.353292,-6.387462,-13.21478,-9.209725,-10.49339,-8.326219,-8.304567,-8.142538,-8.227522,-25.06217,-12.23149,-15.15125,-21.3689,-13.16203,-7.827033,-12.69121,-15.71495,-8.820717,-11.4966
0,465,-2.718389,-3.637603,-10.84962,-6.850528,-7.792359,-5.992716,-7.414857,-6.476318,-5.835364,-22.20773,-8.594699,-11.80155,-18.63116,-8.516191,-7.496965,-10.96889,-13.61143,-6.647885,-9.320601
0,466,-4.895958,-5.177742,-10.65829,-8.129582,-9.588884,-8.155601,-8.072015,-9.050294,-7.075995,-22.82691,-10.76064,-13.71383,-19.35972,-9.319549,-9.281842,-12.79953,-14.62995,-8.501383,-9.173824
0,467,-3.350876,-4.103611,-7.894716,-6.132364,-7.874182,-6.768275,-7.557329,-7.948487,-6.099806,-24.44419,-7.225416,-12.3361,-18.66738,-8.433448,-7.470764,-10.35626,-14.12703,-6.391984,-9.452831
0,468,-2.180888,-2.082288,-5.627291,-4.573347,-7.105356,-4.695788,-6.507565,-5.335012,-5.381499,-22.25101,-5.592607,-10.32943,-16.78074,-5.752503,-6.145576,-7.394021,-11.05486,-3.555109,-6.75334
0,469,4.272283,3.945882,-0.957535,0.6935047,-2.1886,1.013092,-0.5476674,0.6515002,0.2235131,-18.55784,0.111467,-4.937788,-12.44737,-1.815705,-1.699524,-3.46278,-5.401191,1.236831,-1.057728
0,470,-4.977476,-5.028671,-9.957521,-7.396277,-9.791655,-6.545341,-8.583683,-6.529747,-7.65565,-27.51394,-6.510449,-12.22296,-23.16458,-9.68341,-9.749342,-10.9453,-15.01056,-8.210292,-10.92635
0,471,-6.508386,-7.377133,-11.20742,-9.293376,-11.39365,-8.468453,-10.15083,-8.201109,-9.624523,-27.35273,-7.828598,-13.56304,-23.2401,-9.590099,-10.988,-11.46982,-15.68183,-9.316508,-10.65612
0,472,-7.572594,-8.798939,-13.19769,-11.18445,-13.53873,-9.476571,-12.19858,-9.507343,-9.755602,-29.08425,-8.317781,-14.35424,-25.31429,-10.43248,-11.84859,-13.50939,-17.48167,-8.976579,-12.06958
0,473,-3.18168,-4.192363,-8.301207,-7.029305,-10.8918,-4.259027,-8.359575,-3.92875,-4.91788,-26.98176,-2.637977,-10.96742,-23.40211,-6.237714,-7.213273,-9.023021,-13.42065,-5.329956,-8.947837
0,474,15.23261,14.92587,7.683109,11.11211,8.438171,13.10475,10.26062,12.88416,12.51553,-8.391065,13.18923,6.559376,-3.973365,10.95307,11.23816,9.145428,5.506509,12.69556,11.66999
0,475,3.396888,3.513867,-3.756392,-0.6409489,-3.762106,1.273122,-2.396532,0.9646768,0.04273818,-20.99961,0.3309104,-6.349822,-16.85956,-1.910836,-1.024466,-1.695153,-6.916946,0.9525657,-1.587138
0,476,-5.589198,-5.555324,-11.48493,-9.128074,-12.3022,-6.767831,-10.91303,-6.728217,-7.244462,-29.26536,-7.733461,-13.297,-25.32923,-8.512996,-9.732128,-9.485783,-13.98151,-7.010107,-9.568791
0,477,-0.03631713,-0.8384697,-7.131546,-4.665742,-8.185178,-1.682171,-4.437469,-0.9290089,-2.676272,-23.58104,-3.23543,-7.878264,-19.89764,-3.376995,-3.724799,-3.051409,-7.710244,-1.607651,-2.466526
0,478,14.59269,12.89888,4.274543,8.484309,5.473303,11.30228,9.30756,12.02255,9.96417,-12.76886,8.05946,4.598406,-8.222452,8.467966,10.85039,10.35581,4.046274,12.40416,10.54197
0,479,19.37992,16.33745,6.840824,11.6701,9.514127,13.9796,13.41981,14.81597,13.38982,-9.889256,8.960819,7.435131,-4.496905,11.06296,13.27793,14.05712,7.950258,14.85742,15.64626
0,480,25.36847,19.63555,8.481452,14.21761,12.392,17.02885,17.31345,18.43374,16.53241,-6.71557,10.65527,11.41097,-1.567118,13.34557,18.0843,15.9456,12.42908,17.95927,20.14721
0,481,16.52884,12.89065,1.354458,7.455947,4.997848,10.68431,10.06249,12.37766,9.128103,-15.5361,3.616301,3.123765,-10.69257,6.321507,11.12574,8.867988,3.640244,12.00349,10.86104
0,482,11.72626,7.438673,-3.008931,2.637065,0.5338055,5.197508,6.5732,6.538308,4.883909,-19.29225,-1.187407,-1.40349,-15.02315,2.896966,7.576324,5.071313,0.5842585,6.677535,8.844387
0,483,10.44714,6.036541,-4.702363,1.069059,-1.258337,3.8858,5.673773,5.093533,3.6515,-20.90678,-1.792841,-3.464722,-16.95037,1.003704,5.989845,3.584722,-1.190476,5.587958,7.321929
0,484,-7.103513,-10.933,-21.29622,-16.05778,-19.52367,-13.49382,-11.30773,-13.09736,-14.90515,-39.74502,-17.10143,-20.49197,-35.60272,-16.24115,-12.51779,-13.03595,-18.602,-11.50946,-12.7982
0,485,-26.04094,-28.40552,-36.40379,-32.92918,-36.47316,-30.77494,-30.70336,-30.87815,-31.69619,-55.28255,-33.38958,-36.25028,-52.31616,-30.13255,-30.21321,-28.68865,-34.87101,-28.51804,-28.52381
0,486,-19.95093,-22.68752,-29.0367,-26.1688,-29.25314,-24.51863,-26.5208,-25.1608,-24.96761,-51.90986,-24.81829,-30.04552,-47.42309,-21.26996,-24.2137,-22.47824,-29.60971,-20.98942,-23.51495
0,487,-14.67929,-18.58476,-22.87469,-21.66985,-25.46671,-19.99704,-21.52576,-21.03327,-19.69411,-47.08701,-17.38372,-24.92177,-43.45436,-15.71792,-20.13412,-18.20594,-24.11455,-15.9237,-17.99824
0,488,-4.669358,-10.56302,-12.44707,-12.36986,-15.2296,-11.07452,-12.18307,-11.21627,-9.93619,-36.13328,-8.600537,-15.00001,-32.89086,-7.671753,-10.49567,-8.118577,-14.05836,-5.853071,-5.848636
0,489,-2.071594,-6.822564,-10.27144,-9.397607,-12.72397,-8.385589,-9.938072,-9.055536,-8.332629,-36.55952,-6.283215,-13.28428,-31.57449,-4.623678,-8.333057,-5.277229,-14.14631,-2.544173,-4.728362
0,490,-5.280507,-9.731529,-12.17982,-11.50122,-14.59338,-10.46235,-11.5564,-10.41826,-11.22518,-37.53852,-8.750102,-15.26058,-33.72397,-6.143985,-10.07842,-7.056013,-16.68841,-3.662038,-6.977219
0,491,0.1863597,-3.592601,-5.926093,-5.545582,-8.699605,-5.313948,-5.55754,-5.814173,-6.043493,-30.4101,-3.095884,-10.07288,-27.28652,-1.396725,-3.911884,-1.527657,-9.620665,2.055085,0.2642158
0,492,0.1573571,-4.666367,-7.283508,-6.347047,-8.751928,-6.603666,-6.624892,-7.555589,-6.771744,-32.77079,-4.569429,-11.23301,-29.62968,-1.879766,-4.991214,-3.155134,-10.23929,1.763614,-2.216794
0,493,0.5287132,-4.805578,-6.180004,-6.38349,-8.66168,-6.750795,-7.22744,-7.836081,-5.45118,-31.77701,-5.329166,-10.42614,-29.18183,-0.9878385,-5.475336,-2.771636,-9.478534,2.26412,-0.2153501
0,494,-9.406546,-14.017,-16.15269,-15.4278,-17.27502,-15.48127,-16.06823,-16.36263,-14.96456,-40.58206,-13.99905,-19.71527,-38.16119,-8.87717,-14.02142,-10.62323,-17.31937,-5.30957,-9.377903
0,495,-6.908161,-12.23912,-12.94175,-13.11263,-15.33707,-12.94911,-14.79962,-13.30124,-13.12044,-39.10976,-11.04391,-17.44637,-35.80071,-6.010618,-11.56159,-9.180742,-16.59816,-3.121481,-9.200562
0,496,-0.2925653,-4.781497,-4.867503,-5.610256,-7.821947,-5.867398,-7.757539,-5.628442,-6.360242,-30.14424,-5.799678,-9.252411,-27.86596,-0.2104817,-4.147617,-1.643109,-8.670887,3.403571,-0.001644656
0,497,-4.858582,-9.299425,-9.566699,-10.09926,-12.23601,-10.21186,-11.98107,-9.441943,-11.32072,-35.74907,-10.74197,-14.70843,-34.3394,-6.54513,-10.0395,-5.616571,-12.30809,0.1024785,-4.630794
0,498,-8.368085,-12.30673,-12.00238,-13.01471,-15.6424,-13.31185,-15.8766,-13.01923,-14.83599,-40.45658,-12.9637,-18.77859,-39.11668,-9.13967,-14.23278,-8.24618,-17.54801,-3.568855,-9.937793
0,499,-6.813259,-10.56511,-8.967464,-10.59024,-12.75153,-11.18431,-13.50662,-10.98921,-12.15016,-35.33706,-10.14748,-14.97888,-33.64895,-6.542925,-11.2609,-5.144835,-13.67524,0.1181068,-6.092503
0,500,6.235728,0.7039068,1.965904,0.538033,-1.537871,-0.3798568,-0.5506648,0.2088311,-1.804118,-24.8806,-0.66714,-4.544124,-22.82572,4.212055,-0.537239,5.953494,-2.603235,11.28755,5.012606
0,501,4.790655,-1.495741,-0.3057484,-1.592122,-3.448182,-2.241987,-2.438419,-0.8743008,-4.114253,-25.79421,-3.221908,-5.724281,-23.6118,2.681943,-1.75733,2.568861,-5.061458,8.366251,3.391252
0,502,-5.759844,-9.051792,-7.977784,-9.903049,-13.03915,-10.73722,-11.22849,-9.959359,-13.47122,-32.91679,-11.94854,-12.64444,-32.1503,-5.193885,-9.983221,-4.999703,-12.96158,-0.6048253,-4.413617
0,503,-7.786977,-11.89402,-9.85498,-11.57784,-14.07256,-12.48901,-13.35847,-11.04835,-16.38683,-36.18693,-12.97308,-15.85068,-35.90907,-6.235815,-12.32341,-7.416258,-16.03662,-1.839618,-9.019326
0,504,-8.288705,-11.75865,-9.292655,-11.80885,-14.8359,-12.01079,-15.17202,-11.15878,-15.57385,-34.78222,-11.11476,-14.81884,-34.992,-5.043313,-12.78146,-7.21888,-16.66288,-1.193493,-9.822201
0,505,-3.98568,-7.801927,-3.999819,-7.425185,-10.63679,-7.755297,-9.528468,-6.991795,-10.25886,-29.02982,-6.379476,-9.115975,-27.72576,0.1667938,-7.900331,-1.493498,-9.301331,3.773998,-3.499967
0,506,-5.352571,-10.01998,-6.001914,-9.364788,-11.93622,-10.17128,-11.89666,-10.47322,-11.84423,-31.74816,-7.228162,-11.2991,-30.43072,-0.02935985,-11.2372,-3.022022,-11.49842,2.615531,-6.531227
0,507,-9.149223,-11.83771,-6.99626,-11.323,-14.75819,-12.77204,-14.60477,-13.14221,-15.22654,-33.38843,-9.124781,-13.64931,-31.80126,-2.711938,-13.18325,-5.511691,-14.00467,-1.050817,-6.972659
0,508,-5.949685,-8.309632,-3.777636,-7.959101,-11.68067,-9.090466,-10.28156,-9.188053,-11.8431,-28.34603,-5.753745,-9.626411,-27.63755,0.3536012,-7.964168,-1.921184,-9.732053,2.997767,-2.388581
0,509,-3.154402,-5.674031,-0.3929358,-5.052578,-8.800358,-5.750036,-7.899704,-6.018954,-7.481098,-24.92665,-1.925611,-5.626486,-25.4318,3.401612,-5.742807,0.4462283,-7.074169,5.455595,-0.6833284
0,510,11.801,8.038681,10.1714,7.404873,4.95149,6.817231,6.118844,6.181368,7.207057,-10.25436,7.167125,7.656412,-10.47217,14.94762,7.666291,12.92371,7.244305,18.21808,14.41451
0,511,12.36574,9.033571,9.10482,7.450814,4.632988,6.833925,7.188115,6.321093,6.211601,-10.84486,5.952193,5.721248,-11.0546,13.55022,8.592446,11.76516,6.81124,17.44635,14.00059
0,512,15.1727,12.68283,12.02659,10.66153,7.495193,10.45182,9.9215,9.748008,9.970113,-7.836718,9.461914,9.1021,-8.192158,15.20952,11.46765,15.17858,9.100864,19.61804,16.2723
0,513,15.94638,13.91212,12.3272,11.58356,9.177657,11.41527,11.2759,11.02644,11.80281,-4.112807,8.763548,10.95592,-5.31706,15.42538,12.59305,15.27005,10.73368,19.58755,19.79401
0,514,11.41728,7.404084,5.045707,4.92145,2.75655,5.218631,5.032579,5.453262,4.600317,-10.58918,3.124716,3.951671,-11.60268,6.79938,6.541173,7.848368,3.314139,13.56583,12.51098
0,515,17.26701,13.61767,9.393051,10.12318,7.797265,11.1873,10.6798,11.37415,11.54424,-4.146698,7.516071,10.65535,-4.294147,11.12839,12.82418,13.52963,9.811481,17.15733,18.66542
0,516,7.622744,4.813823,-1.294624,1.088886,-0.9270054,2.889806,3.159204,4.357707,1.820337,-12.02633,-2.623701,2.641167,-10.74668,2.975124,5.024366,5.2511,1.560906,6.794876,10.72044
0,517,-9.611279,-12.5905,-19.22639,-16.21646,-17.97834,-13.53052,-14.47851,-12.1352,-14.34095,-30.29655,-17.56124,-13.83094,-28.48771,-12.98668,-12.94723,-12.02332,-14.37176,-8.675847,-7.781069
0,518,-2.450774,-6.084671,-11.38472,-9.610518,-11.14347,-7.28006,-7.870115,-6.301926,-6.619413,-20.38221,-11.28789,-6.34305,-20.802,-6.214139,-6.340677,-5.431913,-6.358154,-1.774473,1.205761
0,519,14.25071,11.8928,3.902179,7.231697,6.066378,9.837332,8.945254,10.75591,10.9263,-3.283385,3.208995,8.972786,-3.620738,9.702846,10.39964,11.01552,11.11631,13.42862,18.17892
0,520,12.65526,10.64272,0.6304322,5.340963,4.047149,7.976622,7.920714,8.253134,8.954387,-6.607508,1.199972,6.147531,-5.538156,7.369768,8.875024,9.058005,8.541868,10.6795,14.15983
0,521,-0.5418119,-2.537111,-11.60817,-8.085658,-9.921847,-5.457242,-5.1703,-5.677409,-3.953105,-16.85746,-12.39701,-4.957748,-15.82037,-4.744634,-2.927709,-2.152626,-2.369086,-0.8606732,2.914196
0,522,-10.38731,-12.22862,-20.02252,-17.48833,-19.85028,-14.57734,-14.56207,-15.0532,-12.85859,-25.26169,-19.53205,-14.79899,-25.51856,-12.94495,-12.89445,-11.09735,-11.57154,-11.04825,-6.696618
0,523,-7.482849,-10.16821,-14.63418,-13.84345,-16.41745,-11.35074,-10.68046,-11.94661,-8.773859,-22.20019,-14.13098,-10.51029,-22.19826,-8.647266,-10.77112,-8.088022,-8.659322,-8.232929,-5.340666
0,524,-7.23668,-9.923326,-14.12094,-14.12492,-17.02279,-11.49691,-11.59585,-12.67606,-9.197033,-19.68859,-13.48196,-9.412718,-21.8898,-7.101647,-11.47993,-7.205751,-7.598283,-8.321015,-4.844145
0,525,-9.488634,-12.32104,-15.41239,-15.99086,-18.58519,-13.34211,-14.75736,-14.75513,-10.47177,-21.77079,-13.79486,-11.83114,-24.19855,-7.56777,-14.04984,-9.56154,-10.55196,-9.620028,-6.978504
0,526,1.220417,-1.830012,-4.156926,-5.042539,-7.226687,-2.262212,-4.336819,-3.230625,1.398104,-10.62446,-3.733692,-0.5665448,-12.2172,5.472001,-2.660461,1.010672,1.08472,0.942355,4.477067
0,527,11.82599,8.972578,5.26263,4.935342,2.987791,7.158759,6.759507,5.901342,10.76607,1.205486,3.987658,9.600092,-0.8705794,14.84967,7.119835,11.17592,12.82686,10.2792,16.0831
0,528,1.816371,0.3543331,-2.530663,-3.324028,-6.072589,-1.147006,-1.925358,-2.413895,1.311821,-8.01825,-3.601479,0.7397881,-9.774901,6.627789,-0.7758187,2.147257,2.703279,2.972551,5.210659
0,529,2.785239,-0.143804,-3.103262,-4.050654,-6.520679,-1.915896,-2.512582,-3.526016,1.242356,-7.505683,-3.903544,0.3904451,-8.686573,6.515266,-0.7193325,1.389436,2.488858,3.04578,5.691782
0,530,-1.757642,-4.390979,-5.701289,-7.439833,-9.854536,-6.081289,-6.537337,-7.272906,-3.623981,-10.78515,-8.322814,-2.613906,-12.1969,1.486692,-3.968996,-1.62329,-0.3457324,-1.397604,2.057703
0,531,5.94556,2.967326,1.606941,-0.163859,-2.695714,0.9158813,-0.02696584,-0.5256394,2.839781,-5.689648,-0.5887447,4.672745,-7.469445,9.137812,2.147312,4.480908,4.873831,5.947114,8.103333
0,532,12.50234,8.638212,8.325387,6.034168,3.973896,6.281221,7.389719,5.198274,8.241126,2.855133,4.012548,11.34146,1.078904,14.91593,8.902862,11.30821,12.85028,11.0185,16.42251
0,533,12.7389,9.758401,6.963823,5.966697,3.645519,6.907499,8.001801,5.713289,8.908188,3.387272,3.473262,10.06125,3.125373,15.53591,10.80329,11.78159,14.05823,10.6759,17.24569
0,534,6.887543,5.867824,1.949885,2.077749,-0.05348457,2.749837,3.453688,1.273211,3.565485,-1.229076,-0.8668228,4.628006,-3.183661,10.71641,6.620934,6.991998,8.628908,6.336193,10.41262
0,535,8.961949,6.685257,4.771867,2.906802,0.3070668,3.87681,4.198521,2.971812,5.232553,2.979768,-0.4706016,8.74678,-0.8193549,10.88714,7.266473,8.175301,10.93103,7.795307,13.74562
0,536,6.299974,4.634504,1.334047,0.3937537,-2.389554,1.871123,1.599576,0.7524391,4.128105,-2.27142,-2.090059,5.898513,-4.050816,8.163297,4.41493,3.948646,7.462059,4.750518,10.47508
0,537,-1.238832,-0.900475,-3.83414,-4.736849,-7.538703,-3.392779,-5.124252,-4.898413,-1.470327,-8.305719,-6.205491,0.4103569,-9.913028,3.449329,-2.071234,-0.5469282,1.012231,-2.25506,3.464428
0,538,3.286853,2.486485,-0.9515071,-1.553482,-3.843083,0.2566768,-1.969117,-0.7367109,1.730147,-3.65346,-2.37462,3.401238,-5.468522,7.288114,1.66752,3.664573,6.022879,2.057756,8.77616
0,539,0.7146902,-0.658941,-3.422575,-3.973617,-6.166182,-1.62256,-4.661817,-2.606418,-0.3898291,-7.749451,-1.969689,-0.3430462,-9.955836,5.74978,-1.538944,0.9458507,2.514769,1.225905,3.745927
0,540,1.290954,0.8626476,-0.5518396,-1.612572,-3.724633,-0.5775324,-2.006856,-2.249541,1.269495,-6.476309,0.03191889,0.4656866,-7.905539,7.283729,0.7268045,3.18114,3.555491,3.182197,6.166922
0,541,3.404401,3.129408,2.453667,0.9908563,-0.3318719,0.7931539,0.4059449,-1.418012,3.54607,-2.254902,-0.1647143,2.827435,-3.695528,10.06965,3.646416,6.845531,6.566451,6.242052,10.38292
0,542,13.39277,13.12267,12.18761,11.27122,9.906521,10.91481,12.22881,9.032604,13.01013,7.157815,9.684483,13.09814,5.906973,20.16995,13.51299,15.54084,16.20424,16.14268,18.85862
0,543,10.43766,10.50942,9.071877,8.608542,7.808905,8.10776,8.282052,6.592548,9.403811,5.111459,6.361736,10.56275,4.114381,17.62565,11.27452,12.98901,14.84097,12.82255,16.93781
0,544,14.41806,14.18815,11.71979,11.56548,10.60042,10.8763,11.82356,8.804824,12.69201,8.129504,8.65129,12.95934,8.68845,20.21024,14.75014,16.09927,17.44442,15.57273,20.39394
0,545,13.92198,13.11698,11.01231,10.92391,10.24407,10.14869,11.35342,8.239839,11.6229,6.714013,7.82083,13.87603,6.819251,19.92772,13.27787,15.67847,15.22908,15.96462,19.02597
0,546,13.35961,13.21291,11.2405,11.57794,11.78383,10.45918,11.64509,9.16715,11.58906,8.951941,7.521689,15.42679,8.822718,20.64919,14.70269,16.9719,17.07681,15.36345,21.9101
0,547,12.80714,12.57071,10.01956,10.9255,11.36667,9.985373,11.49547,8.746961,11.64327,8.012225,6.891585,13.07968,8.697396,19.20475,14.90159,16.1253,17.17954,15.2097,21.31586
0,548,12.67467,11.77431,9.46863,10.61761,11.12149,9.703299,11.13111,8.510472,11.27179,5.522755,7.006695,12.52566,7.673215,19.53576,15.55249,16.7629,15.00643,15.1586,20.02251
0,549,8.700346,6.85777,5.171539,5.328022,5.570585,4.240941,6.872172,3.0728,6.73427,2.362341,-0.05501639,8.269586,4.138752,14.58542,11.3096,12.49544,12.16136,10.93753,17.80341
0,550,9.48771,6.591593,3.747463,4.358349,4.876103,3.98642,5.441321,3.072611,6.843213,1.469426,-1.633394,6.263453,2.514376,13.25417,8.918727,9.837915,11.59602,9.756459,15.08624
0,551,6.521153,5.040257,1.751086,2.299751,2.217749,1.893213,2.889365,0.6056326,3.813502,0.2190793,-3.226432,5.078315,1.269385,10.84281,6.853786,9.043274,9.723511,7.033386,13.13081
0,552,5.052449,2.194788,0.5845846,0.4148346,0.9927844,-0.2962783,1.255167,-1.550984,2.3305,-0.2248311,-5.39389,4.93799,0.7878845,11.14807,5.389512,8.821567,9.138871,5.600185,12.00726
0,553,-0.1583863,-3.485569,-2.615064,-3.504086,-2.708688,-4.815619,-2.742282,-5.830578,-3.445386,-6.21951,-6.626707,0.2997189,-3.618868,7.3616,-0.3515524,4.813908,4.492718,2.932684,5.327135
0,554,1.267617,-1.278087,0.7830665,-1.271048,-1.278204,-2.926648,-0.2474053,-4.967451,0.09333217,-3.643749,-3.589879,4.237548,-0.3150515,10.35844,2.493456,8.068333,8.780278,4.36396,8.85422
0,555,0.2521979,-2.128209,0.2319365,-2.297889,-2.367275,-4.313399,-1.947849,-6.401196,-1.006609,-5.532843,-5.122437,2.286395,-1.56348,10.27321,0.5525844,5.762686,7.753861,2.831349,8.652809
0,556,-11.68509,-13.10821,-8.635611,-12.95547,-14.14433,-14.06688,-14.65611,-16.18843,-10.9581,-16.22568,-13.45967,-8.538775,-13.77676,1.213375,-11.3824,-5.253885,-6.115867,-6.874083,-4.874746
0,557,-2.388068,-4.270879,1.446,-3.306864,-3.909737,-5.086387,-4.934746,-7.61047,-1.528773,-4.918599,-2.088993,2.599002,-2.290395,11.27261,-1.637249,4.050522,4.290676,2.782715,6.146522
0,558,7.25263,5.118159,10.43966,6.482754,6.580659,4.357216,6.169363,2.553385,7.459125,5.354223,6.821639,12.17171,7.316033,18.76149,7.999691,13.23279,13.54822,11.77732,17.16774
0,559,5.176569,4.818799,8.695088,5.289492,4.410445,3.016839,4.019601,0.7427035,4.59749,2.001078,5.459876,10.31446,5.217898,15.98282,6.393776,11.19416,12.04357,9.233899,12.773
0,560,2.95404,2.387637,6.57163,3.088444,2.843264,0.6081249,2.811263,-1.819883,2.663638,3.342286,3.546379,8.134233,5.029473,12.79791,4.267889,9.922538,11.73474,8.333087,12.65763
0,561,-1.135659,-1.301323,2.432516,-0.7500886,-1.296175,-2.513949,-1.221301,-5.150025,-0.2057442,-1.575353,1.586951,4.924982,0.8029473,10.18914,0.713052,5.979879,6.969316,6.058273,8.432911
0,562,-9.916758,-9.51077,-4.536662,-8.316748,-8.907282,-9.859828,-10.27339,-12.51725,-7.295788,-9.597483,-4.337319,-1.96924,-7.133519,4.494435,-6.938896,-1.980706,-1.705305,-2.098324,0.1457284
0,563,-8.97321,-7.846127,-3.648355,-7.08406,-7.349874,-8.114491,-10.2512,-9.765251,-6.817393,-6.504292,-3.854299,-0.02138679,-4.931728,5.041988,-6.151553,0.2117261,1.201667,-1.912076,3.257105
0,564,-3.541485,-2.094664,0.4273204,-1.953337,-2.603128,-2.042418,-4.604125,-3.306323,-1.442607,-2.345839,1.917674,4.301345,0.3617217,10.3824,-0.3025297,4.286972,5.771074,3.8903,6.946525
0,565,-7.517982,-6.554146,-4.873973,-6.975641,-7.788516,-6.084382,-9.027369,-6.843486,-6.343224,-4.867106,-2.043787,-0.08194382,-4.017706,6.355601,-4.742319,-0.8287007,1.211059,-0.3522377,2.626193
0,566,2.085568,2.423878,3.520041,1.659801,1.448933,1.86122,0.09232689,0.5880808,2.984668,4.427039,4.117769,8.972739,5.88459,13.20767,4.1958,8.533635,9.919556,9.078094,13.20626
0,567,12.87849,11.59518,11.31829,11.149,11.93582,11.14945,10.8721,9.757884,12.88479,11.91249,13.68455,18.65137,14.01533,20.77844,14.03696,17.36087,19.06838,18.09824,21.61831
0,568,18.03266,15.73712,14.62233,14.91437,15.91238,15.21954,16.26118,14.4784,17.49972,17.66349,15.77958,23.75392,19.39065,23.78667,19.33288,20.88213,24.37239,20.69456,27.5694
0,569,15.51493,13.52847,11.03766,12.06987,13.25661,12.26468,14.34945,11.44695,14.80603,15.39881,11.52105,21.84946,17.13413,19.79095,16.58511,18.08623,21.88633,18.54086,26.55176
0,570,17.85855,15.48097,10.82213,12.67138,13.41822,13.7612,14.71896,12.45266,16.77839,15.15266,12.09264,21.716,17.87222,19.7464,17.98018,19.04241,23.07309,20.57862,26.03803
0,571,22.2608,18.62884,13.0871,15.48918,17.15653,16.58572,18.64321,15.62053,20.18052,21.31963,13.31462,24.84657,24.04787,21.85618,22.29718,22.02061,26.54111,25.07836,32.06152
0,572,12.23716,8.728786,3.60198,6.016481,8.025136,6.759739,8.774385,6.13015,10.89705,10.80192,2.234757,14.38204,14.32985,12.6221,13.22616,11.8847,17.15696,13.78216,22.4443
0,573,-3.774707,-5.947556,-10.24047,-8.725813,-7.891339,-7.849551,-6.570937,-9.639421,-3.214423,-4.8046,-10.47193,-1.428386,-2.489648,-1.436093,-2.612567,-3.160066,1.547783,-2.542244,4.055685
0,574,-7.354647,-10.02205,-11.02796,-10.94239,-9.597579,-10.94797,-8.955073,-12.5181,-6.26897,-6.281954,-11.80339,-3.614531,-3.939237,-3.431535,-5.034249,-4.055626,-0.7960142,-4.336098,2.341246
0,575,-5.442452,-7.756751,-9.415124,-8.695642,-7.317074,-8.669773,-7.296311,-10.05892,-4.821592,-6.419543,-8.679836,-2.055739,-2.443574,-1.973934,-3.510658,-2.799263,-0.4402111,-1.575322,3.691212
0,576,-4.745316,-4.943784,-6.704831,-6.821816,-6.595368,-6.378516,-6.985423,-8.59798,-2.354867,-3.585678,-5.826003,-0.02014319,-0.1961783,-0.2450387,-2.322482,-0.8340086,0.8323666,0.430386,4.972634
0,577,-2.472044,-3.318333,-4.057074,-5.030455,-4.773099,-5.220719,-4.990945,-7.094071,-1.395968,-1.822181,-5.232978,1.661435,0.9203401,1.749445,-1.220253,1.347159,4.523359,2.009331,8.898627
0,578,4.064886,3.413567,1.020349,2.23561,3.589172,2.045655,2.733985,0.5426589,4.049271,4.242054,2.812193,8.057985,6.211636,7.948985,5.505772,7.516346,8.531183,9.928136,13.30898
0,579,10.39695,10.79316,7.957393,9.340154,10.79394,8.70543,8.759898,7.035094,10.88734,11.61609,9.243363,14.43976,14.02417,13.24252,12.71519,13.53868,14.62077,14.77885,21.01259
0,580,-2.384245,-2.127989,-4.746161,-3.991193,-3.023232,-4.07498,-4.70245,-5.624773,-0.7960213,-1.137777,-4.248291,1.450576,1.638012,-0.02445821,-0.2582194,-0.2958648,1.846614,1.094449,8.528779
0,581,-8.274766,-7.590114,-8.480966,-8.640956,-8.436587,-8.575395,-10.34838,-10.24357,-5.287929,-9.211981,-6.161809,-3.624575,-5.569434,-5.576571,-6.694702,-6.663361,-5.068202,-3.463919,0.3653021
0,582,4.500809,6.021131,5.510861,5.027435,5.259038,4.576223,3.240176,2.8936,8.175348,4.958054,6.13372,9.122363,8.34627,8.076463,7.334997,7.526114,8.096639,9.063745,15.79574
0,583,5.710059,6.842432,5.889471,6.177611,7.110025,5.395079,5.703809,4.13048,7.898493,7.342006,6.407816,10.06339,10.49301,9.02445,8.361883,9.190771,9.339649,10.76824,16.92745
0,584,12.15954,11.43913,8.44383,10.06831,11.43364,9.802379,10.13617,9.078304,12.06503,9.78938,9.592053,11.98538,14.62657,12.00757,13.32456,12.91034,13.69541,15.17392,21.01622
0,585,8.190785,7.586357,5.222566,6.337205,7.676439,5.858455,6.509695,5.236831,8.172733,7.18962,5.615895,8.562133,12.25744,8.041221,9.354129,9.784689,10.61095,10.90847,18.42313
0,586,10.33899,10.94532,6.846824,9.596938,11.17391,9.508146,10.03142,9.360019,10.29392,9.341558,9.491108,11.96668,14.99452,10.20554,12.10151,13.30788,11.76649,13.4612,20.73999
0,587,14.53221,15.47919,10.27001,13.44365,15.15146,12.89562,12.61963,12.07316,13.88398,12.12246,12.64571,15.0743,17.15699,12.9676,15.74279,15.58912,14.54613,17.48671,24.40461
0,588,20.44433,20.69097,14.28904,18.1595,20.34303,16.9312,19.41505,16.0404,18.04843,18.76584,14.78385,20.37109,23.54668,17.44269,21.61034,19.7886,19.43185,22.78583,31.49329
0,589,8.778468,10.41168,5.577681,9.102976,11.39362,6.681868,10.19104,4.980442,8.384899,7.624131,5.316645,9.434991,11.61129,7.572173,12.06714,9.284071,8.511493,13.92688,19.14655
0,590,-2.213495,-1.025719,-2.924641,-1.036547,1.509699,-4.080076,-1.720409,-6.366551,-0.8215086,-3.530224,-3.469868,-0.9570639,1.698881,-1.089333,0.9410062,-0.7393358,-1.832655,3.178363,8.063577
0,591,6.144217,7.436365,4.807441,6.843375,9.548184,4.754377,5.110387,3.497488,7.341314,6.413102,4.464338,8.04993,10.51163,6.087069,8.764906,7.038198,6.230941,11.28048,18.25805
0,592,11.19721,12.6543,8.734811,11.79869,14.40403,9.648796,10.80054,8.750184,11.06859,9.413009,8.646538,12.40786,13.00256,8.976291,13.23796,10.84073,9.135774,15.80837,21.72985
0,593,16.03527,15.60165,12.44139,15.22357,18.1309,12.58395,15.27185,11.54384,15.20596,12.13939,11.14994,15.89771,17.06227,11.93574,16.67458,13.5482,12.11618,18.42117,24.22504
0,594,8.961241,9.907423,5.267129,9.182096,12.09265,6.930329,9.512726,5.968431,9.126563,6.205616,5.450252,8.46259,10.40909,5.121761,11.57951,7.143757,5.251849,12.20295,18.19684
0,595,-7.42143,-5.066111,-9.817347,-5.950753,-3.395356,-7.906018,-7.660523,-9.417538,-5.956749,-11.26731,-7.885224,-7.771562,-7.585439,-9.12976,-5.699677,-8.539785,-10.27953,-3.30142,0.3893148
0,596,2.647141,5.275876,1.754502,4.433437,6.400414,3.140351,2.303025,1.948529,5.379975,0.4776219,3.555697,3.281327,5.33614,2.597277,5.089333,3.314718,1.026049,8.283175,12.43739
0,597,20.32117,21.89717,16.64275,20.5391,22.91639,18.52695,21.20407,17.00016,20.96279,16.54868,17.60696,18.87721,21.73718,17.36726,21.93329,19.17323,16.89748,25.24962,29.77845
0,598,15.1749,14.30169,7.507568,12.68303,16.08524,10.71955,13.03091,9.452215,12.37376,8.061131,10.09966,10.70909,12.22271,9.066947,14.0302,10.06581,9.597041,16.98759,21.20154
0,599,11.98942,12.45024,5.335137,10.33157,12.9888,8.922703,11.16228,8.460784,10.12054,6.237478,6.196666,9.503816,10.31845,7.104359,12.17411,8.008176,7.603083,14.12679,20.37456
0,600,4.116245,6.485333,-1.569906,4.046579,6.570426,2.693952,3.957528,1.494581,5.011714,-2.416458,0.1157832,3.533393,2.857853,-0.3661948,4.291717,0.5303256,0.3252233,7.338114,12.43217
0,601,3.803614,4.909098,-2.056975,3.336888,6.387869,2.689046,3.397316,2.331122,5.63924,-2.715912,0.08079261,2.715969,3.150182,-0.881662,4.499439,1.456535,-0.125537,7.893222,12.61287
0,602,10.08479,9.688373,2.248944,7.633303,10.78836,7.398928,8.497289,7.384518,10.45042,3.309846,4.019438,6.681583,9.325358,4.114623,9.712348,6.052835,5.457424,13.01872,18.46748
0,603,11.63946,10.60443,1.437714,7.64682,10.36323,7.487368,9.339497,6.676271,9.927707,3.238909,4.958137,5.756233,7.250081,4.859,10.2991,5.575089,3.758668,10.77517,16.82213
0,604,19.30931,18.33393,8.083506,15.38693,18.86777,15.12056,17.37699,14.76295,18.19211,10.40721,10.6429,13.67786,16.12157,10.74007,19.05893,13.52444,12.43292,18.39294,25.91898
0,605,18.63345,18.24021,5.278111,13.89948,17.46212,13.87352,16.46914,13.63088,16.63426,10.06671,7.372572,12.7015,15.54775,7.052763,17.87079,12.41665,12.43673,16.19041,26.51394
0,606,0.4869034,-0.2187265,-12.69524,-3.955119,-0.2550346,-4.14786,-1.520743,-4.995292,-2.460678,-7.782619,-8.994431,-6.076847,-3.787805,-8.236099,0.3425798,-5.269989,-6.225022,-0.3089721,4.958511
0,607,10.45171,9.971785,-1.90685,6.119958,9.400386,5.988761,9.516719,5.446903,8.604579,3.204005,0.5946114,5.036805,7.624715,2.078563,11.26461,4.284238,4.888125,10.30594,18.26252
0,608,8.069019,8.662459,-4.858556,3.756391,6.431463,4.203614,7.214493,3.924417,6.478594,0.3909568,-3.099425,2.546586,5.214138,-1.130089,9.340616,2.128773,2.532159,7.605588,16.26594
0,609,6.586653,7.439014,-6.525188,2.785539,5.557204,3.533487,6.498151,3.423402,5.008811,-0.7249113,-3.918516,1.769319,2.512962,-2.661075,8.538649,2.0471,0.3240409,5.980419,13.28492
0,610,-0.6710027,-0.2169572,-14.90659,-5.440214,-2.418029,-4.661926,-0.2493488,-5.606803,-1.33585,-6.775285,-11.50905,-6.390862,-2.988402,-9.824792,-0.3572053,-5.85942,-5.748744,-2.882931,7.200547
0,611,-12.85249,-12.22251,-25.73528,-17.34187,-15.07149,-15.61962,-14.21949,-16.90651,-11.4832,-20.53954,-20.36226,-18.60903,-15.65089,-19.86547,-12.99618,-17.98188,-18.91141,-13.97282,-6.518578
0,612,-8.002725,-8.255361,-19.00341,-12.28823,-10.5526,-11.0815,-10.18184,-12.10464,-7.724263,-16.97861,-14.64713,-14.60921,-12.38028,-15.40226,-7.734766,-12.35436,-14.97937,-9.181826,-3.190804
0,613,0.2982597,-0.3233184,-10.04886,-3.58236,-0.9946101,-3.157857,-1.679296,-3.632786,0.4565993,-7.578797,-7.305013,-4.853355,-3.080317,-7.470268,0.7254481,-3.968855,-4.701604,-2.009937,7.480844
0,614,-7.572735,-6.500732,-16.7741,-9.8974,-7.871758,-9.082215,-7.766685,-10.36021,-6.280577,-13.73869,-11.15438,-10.34959,-10.15692,-11.87236,-6.30854,-10.22639,-11.15739,-7.381077,-1.455032
0,615,-16.31087,-14.9564,-24.97975,-18.15234,-15.82113,-17.69639,-16.75247,-19.48991,-14.77939,-21.60458,-20.16385,-19.53776,-18.93905,-19.82128,-14.63714,-18.00097,-19.07063,-15.17305,-11.49436
0,616,-21.83791,-22.06326,-29.01926,-24.24791,-21.96129,-23.6095,-22.70294,-25.28156,-19.08467,-26.67154,-24.48377,-24.00982,-23.06968,-24.274,-21.46386,-22.62441,-24.51451,-19.23343,-15.31866
0,617,-15.0564,-13.86547,-21.3147,-16.53424,-15.21233,-15.58799,-14.86833,-17.72166,-10.74737,-21.34305,-16.08204,-15.65493,-16.90153,-16.96896,-14.47446,-15.22777,-17.73144,-10.78312,-8.416427
0,618,5.113699,5.950443,-1.946149,2.811611,4.213314,3.179392,4.825602,1.379192,7.781284,-1.378901,0.2893336,3.536876,3.585879,0.7226999,5.511963,4.573691,1.603751,8.010875,12.88226
0,619,9.088304,10.79645,0.7034738,6.724651,8.068961,7.633882,8.554505,6.388093,11.49533,2.311595,2.999396,6.957514,7.622424,2.759873,10.67716,7.988981,5.281518,12.06545,17.58898
0,620,6.67017,8.770251,-1.7584,4.754261,5.954711,6.146605,6.259803,5.83045,8.252222,-1.33892,0.8772943,4.930992,4.487424,0.5351869,7.763105,5.926083,1.004984,10.56813,14.0475
0,621,6.621296,8.450254,-1.688888,4.735603,6.294201,5.552011,6.273813,5.427253,7.542484,-0.7021946,-0.2446929,4.495591,4.333025,0.084043,8.618243,5.704375,1.725635,9.653952,14.99644
0,622,1.759797,3.298126,-8.234742,-0.9796051,0.6545665,-0.04273043,1.69785,-0.87057,2.813119,-6.443572,-6.104092,-1.366923,-1.720439,-5.091852,3.849241,-0.3346019,-3.953287,5.354922,9.275336
0,623,3.062325,4.159661,-7.122409,-0.1394922,1.545193,0.6434556,1.114045,-0.9925918,4.448995,-7.466237,-4.075798,-0.9984651,-1.906279,-4.767756,2.931315,0.2555611,-3.342711,5.156511,8.229994
0,624,-6.154621,-5.116439,-14.33815,-8.805297,-7.350272,-8.363308,-7.3408,-10.30791,-4.25099,-13.74179,-11.86877,-8.278946,-7.93823,-11.65261,-4.840531,-6.645311,-10.81024,-1.874828,1.44258
0,625,-9.94173,-7.297642,-15.70222,-10.37685,-9.441886,-10.06689,-9.205663,-12.32815,-5.907838,-17.30239,-12.21339,-9.714319,-11.30451,-14.47291,-7.347343,-9.81804,-13.64974,-3.38256,-3.112249
0,626,3.642299,5.279995,-2.427613,2.229156,2.809817,2.416816,3.671707,0.5676908,6.493959,-5.805335,-0.2327978,2.489335,0.8751266,-0.9982896,5.883949,2.825304,-0.2812313,9.140034,10.59861
0,627,4.562205,6.067572,-2.19992,2.845057,4.121545,2.09659,3.326369,-0.7181208,5.729724,-3.695058,0.7311306,2.732951,0.2983762,-1.045214,6.644269,3.950537,0.7800998,8.998545,11.87002
0,628,1.116821,2.390272,-5.202756,-0.2899215,0.9112339,-0.7924519,-0.7612224,-3.259816,2.690096,-9.00873,-1.618474,-1.176502,-5.099242,-4.078525,3.111578,-1.017194,-5.243145,5.231055,6.219478
0,629,7.019054,8.702196,3.810001,7.006675,7.764842,5.415355,6.7371,3.350814,8.738348,-2.662273,3.869797,5.705012,3.251164,3.038531,9.814701,6.212921,1.559232,12.80633,13.79746
0,630,4.140058,5.554181,1.715351,4.290941,5.391436,1.618286,4.235424,-0.9213432,4.911633,-4.345096,0.7027919,3.464533,0.2265864,0.3645678,6.119915,3.511056,-1.345916,9.791815,11.81105
0,631,-7.268308,-5.557735,-8.355927,-6.392241,-5.830159,-8.70465,-8.305371,-11.36541,-5.157316,-17.73507,-8.056071,-9.365971,-13.00608,-11.44617,-5.265835,-9.295712,-13.83857,-1.310609,-2.802361
0,632,-13.99317,-11.65312,-12.74954,-11.78807,-11.31356,-14.83943,-14.28764,-17.76265,-12.16187,-22.56456,-13.67538,-13.79457,-18.12406,-17.18276,-11.80668,-12.97461,-18.23755,-5.439446,-9.294713
0,633,-17.55394,-14.97017,-14.98884,-14.30709,-13.3111,-18.03997,-16.93788,-21.17744,-14.77771,-25.60207,-15.93141,-16.77014,-21.62583,-18.267,-15.04647,-15.81158,-20.74935,-8.905142,-11.12296
0,634,-19.95437,-18.58093,-16.95646,-17.45413,-16.67416,-20.60417,-21.55667,-23.68969,-16.94605,-29.37477,-17.1804,-20.07955,-25.67721,-19.64987,-18.74504,-18.57731,-24.34303,-11.61573,-15.65022
0,635,-15.26488,-13.13108,-11.78925,-12.59063,-12.25053,-15.42272,-16.63243,-18.54171,-11.54402,-22.11911,-12.73699,-13.13389,-19.51564,-14.40965,-13.06242,-14.37694,-20.46792,-6.730572,-9.263305
0,636,-17.66529,-13.73303,-13.84672,-13.03915,-11.99003,-15.52739,-17.35669,-18.41914,-12.20841,-23.41433,-12.444,-15.2093,-21.37026,-16.40778,-15.17916,-16.76561,-22.5724,-6.370817,-11.7905
0,637,-23.88021,-20.83891,-19.45307,-19.38462,-18.65438,-21.35772,-22.74898,-23.52902,-18.52713,-30.0436,-17.46064,-21.40376,-27.92708,-22.06218,-21.86161,-22.22744,-28.11053,-11.20541,-18.74743
0,638,-18.45458,-14.64704,-13.22941,-13.34884,-12.20552,-15.19838,-17.87964,-16.37724,-12.95722,-21.87705,-13.41096,-13.93829,-21.26668,-17.05066,-16.09125,-15.90029,-20.40024,-5.20608,-10.14189
0,639,-14.59143,-9.566433,-11.17371,-9.364597,-8.240055,-11.53771,-13.77592,-13.57503,-9.840395,-20.19295,-10.62003,-12.4688,-18.25471,-14.86137,-12.32305,-12.80505,-19.2881,-2.172518,-8.842961
0,640,-16.60322,-12.55996,-13.4363,-12.25744,-11.08212,-14.57551,-16.57836,-17.18093,-11.9969,-22.52246,-13.69231,-15.27923,-22.19726,-16.34192,-16.07648,-16.0558,-22.4464,-5.173049,-13.13769
0,641,-17.06218,-13.15005,-13.47613,-12.83054,-11.79467,-15.2645,-16.7674,-18.1656,-11.73143,-21.75713,-13.84556,-14.77955,-22.41949,-16.72081,-15.52386,-16.28045,-20.78726,-5.984966,-11.55335
0,642,-12.83561,-8.314363,-9.400796,-7.599094,-6.011628,-9.861929,-12.26898,-12.66783,-5.618293,-19.75358,-8.778156,-10.98291,-19.95229,-13.21499,-11.20735,-12.70216,-18.30787,-1.934579,-9.013944
0,643,2.822639,4.045774,3.291749,4.912194,6.956982,2.591026,1.776358,0.4432624,6.401155,-5.724622,4.639851,2.207758,-4.777544,-1.590033,2.092362,-0.5248436,-5.638046,11.94105,5.810694
0,644,7.836265,9.607014,6.808416,9.827434,12.19066,8.714913,6.153639,7.685156,11.77603,-0.4242812,8.941557,5.781333,-0.4070759,2.259451,7.94499,5.315474,-0.08307547,15.65841,11.5962
0,645,-1.021163,3.641938,-1.0948,3.169864,5.000548,2.984234,-1.328425,2.208366,5.285734,-8.862221,1.733538,-1.701048,-7.986766,-5.680083,-0.1395866,-1.930223,-8.231723,7.763544,1.442311
0,646,-10.78083,-5.021272,-8.458861,-6.051921,-5.495604,-6.709713,-11.22055,-7.811259,-4.934915,-16.25808,-8.701949,-10.12532,-16.79338,-15.38907,-9.905671,-11.59878,-16.75968,-1.56187,-7.742667
0,647,-14.48985,-8.971692,-11.44218,-9.422607,-8.754573,-10.14773,-14.8003,-11.58682,-7.75526,-18.78396,-10.28991,-12.8567,-20.62992,-18.23686,-12.69114,-15.19154,-20.14278,-6.1208,-11.07424
