type,latency,P7,P4,Cz,Pz,P3,P8,O1,O2,FC6,F8,C4,F4,AF4,Fz,C3,F3,AF3,FC5,F7
0,1,0.07430844,6.118211,6.321985,-0.6207145,1.010037,-8.494603,-5.68299,-5.755309,6.475265,1.229684,5.25441,13.37555,4.854633,4.940289,5.021123,5.437884,7.268758,6.233057,6.085661
0,2,-5.595617,-0.1576921,-1.109246,-4.866304,-4.225653,-13.37059,-11.20407,-10.47942,1.108907,-5.219082,0.5384933,7.417642,-2.650751,-1.163648,-1.382418,-1.859059,-1.029784,-0.5775613,-1.188983
0,3,-8.81431,-2.295758,-4.328007,-8.481866,-7.687262,-16.60382,-13.98401,-13.46501,-1.915867,-6.138173,-3.346964,3.902879,-2.233433,-5.278854,-4.449033,-4.782116,-3.835966,-3.738995,-3.991343
0,4,-16.56812,-10.34799,-11.16934,-16.71571,-15.7723,-25.05475,-21.29723,-20.72519,-9.297953,-9.997648,-11.55033,-4.338933,-5.690076,-13.16854,-11.4823,-10.66382,-8.724567,-10.5263,-9.968295
0,5,-19.19106,-12.82428,-11.69959,-19.18921,-18.60499,-27.19517,-23.14022,-22.9178,-11.43838,-8.803098,-14.08001,-8.312215,-6.209854,-15.76167,-14.14874,-11.65959,-8.260851,-12.61659,-11.04956
0,6,-15.0295,-8.22898,-7.327769,-14.81282,-14.55315,-22.65172,-18.51259,-19.49767,-7.692018,-5.355542,-10.59154,-4.222492,-3.142311,-12.18054,-11.24528,-7.311693,-3.902986,-8.834988,-6.951305
0,7,-16.59103,-10.11863,-8.765568,-15.86637,-15.77234,-23.00179,-20.84266,-20.52659,-8.947128,-8.077939,-11.22522,-5.415939,-5.805815,-13.10455,-11.86535,-8.848902,-5.909805,-9.955186,-8.567015
0,8,-14.87662,-8.809608,-9.674463,-14.3867,-13.88528,-21.79073,-18.99488,-20.20667,-8.278026,-8.417714,-9.218383,-5.834219,-6.088186,-11.3506,-9.913656,-10.47005,-7.456955,-9.755791,-9.208581
0,9,-3.195728,2.950426,-0.5186661,-3.67958,-2.414829,-11.59017,-6.904709,-9.845498,2.019425,0.1925337,1.743128,5.14075,1.947497,-1.803894,1.075102,-1.563562,1.850385,0.5103323,0.6056792
0,10,0.372229,6.583124,1.046609,-0.1784977,1.136443,-6.199969,-2.721557,-6.335958,3.586505,-1.846094,4.738187,6.69486,1.036469,0.6631983,2.517818,-1.424509,0.2825667,1.620977,0.8200582
0,11,-6.853143,0.07927399,-4.225815,-7.021653,-5.973026,-11.98224,-9.984965,-11.62131,-2.1971,-6.16908,-1.532713,-0.2113858,-3.346482,-6.00793,-4.164317,-8.091202,-6.768174,-5.318302,-6.006705
0,12,-21.34929,-12.67997,-14.73398,-19.72918,-20.11471,-25.94318,-24.73111,-25.40863,-13.05625,-11.64614,-15.24847,-12.10507,-9.228759,-18.62918,-17.50217,-18.30323,-16.78893,-17.62871,-17.09873
0,13,-29.75923,-21.24102,-20.89644,-27.3651,-28.17785,-35.61983,-33.35982,-34.22372,-18.72278,-12.55432,-24.9267,-16.98863,-10.07546,-26.05317,-24.56887,-24.79983,-24.91622,-25.0311,-24.40333
0,14,-30.17328,-21.60848,-19.49451,-27.86346,-28.52781,-36.00191,-34.23355,-33.94041,-17.97024,-10.83594,-24.35113,-16.50671,-9.693082,-26.3395,-23.61955,-23.93961,-23.10872,-24.27536,-23.40046
0,15,-27.99026,-20.13387,-18.04204,-26.30027,-26.6911,-33.58134,-31.98495,-31.71298,-16.79255,-12.14492,-22.66247,-13.91401,-14.70643,-23.68224,-22.43905,-21.40812,-19.29827,-22.01927,-20.93826
0,16,-34.35508,-26.38207,-22.38323,-32.89718,-33.23387,-39.44503,-38.11238,-39.00347,-22.77083,-15.82244,-30.84802,-19.26623,-19.04516,-29.31435,-28.68054,-25.82998,-23.96755,-27.61383,-26.10721
0,17,-37.72195,-29.64912,-22.78034,-36.04106,-36.63208,-43.33336,-41.47975,-43.24728,-24.59169,-14.59681,-33.32097,-21.918,-16.36583,-31.8317,-31.28035,-26.63578,-23.68272,-29.593,-27.11282
0,18,-37,-28.94453,-21.03075,-35.49908,-36.06176,-41.28017,-40.77853,-42.51394,-22.48008,-10.96729,-32.82022,-19.18014,-12.82343,-30.52342,-29.814,-24.60642,-21.1037,-28.08415,-25.18659
0,19,-38.02597,-30.48311,-21.51146,-36.70628,-37.18664,-43.22015,-42.39518,-43.16864,-21.99002,-8.64187,-33.71624,-17.57574,-9.436099,-30.53715,-29.38033,-23.09111,-18.92951,-27.32548,-23.89589
0,20,-38.52497,-31.56447,-20.62127,-36.41092,-37.35143,-43.55707,-43.66204,-43.7236,-21.61099,-7.055964,-33.87575,-17.19159,-6.616701,-29.61403,-28.48273,-21.36317,-17.54258,-26.2965,-22.75439
0,21,-39.34872,-32.59678,-21.38454,-38.14394,-38.34982,-45.18277,-44.66646,-44.36479,-22.66305,-8.29714,-35.53672,-17.22806,-8.481016,-30.81275,-28.85975,-22.22833,-18.58789,-26.91274,-23.61182
0,22,-34.58543,-28.05711,-16.41176,-34.1318,-33.73801,-39.52524,-39.94506,-39.83595,-17.85001,-4.591768,-30.74603,-11.74685,-4.2314,-26.30692,-23.95669,-18.31795,-14.67775,-22.47859,-19.43898
0,23,-32.39969,-26.36187,-14.7285,-30.68167,-31.27522,-37.11737,-37.62912,-37.63322,-15.01325,-1.544608,-28.01367,-9.097489,-1.952888,-23.84705,-22.34382,-15.95089,-12.42494,-20.48539,-17.26517
0,24,-26.91405,-20.77243,-9.693965,-26.17842,-25.81373,-32.35682,-32.90244,-33.02393,-10.25159,0.6576756,-23.02614,-2.805227,0.2532744,-17.34089,-16.42137,-11.32525,-8.117867,-14.97833,-12.48219
0,25,-11.51065,-6.181417,1.779142,-12.96156,-10.69652,-18.60668,-17.88656,-19.55923,1.372387,5.437245,-8.599745,11.05868,6.00381,-3.885961,-1.850691,-0.3027769,2.474518,-1.43635,-0.4888213
0,26,-7.593125,-1.832774,5.069077,-8.814419,-6.393668,-13.92373,-14.45923,-13.6827,4.416006,5.052701,-4.750272,14.59444,5.113731,-1.097058,1.656245,1.137575,1.375588,1.237857,0.8021964
0,27,-8.620494,-3.178963,4.006152,-10.45933,-7.61372,-15.06202,-14.49734,-14.38565,2.509662,2.846507,-5.875021,11.3745,2.363233,-1.741244,-0.9868424,-2.661729,-2.951923,-1.912209,-2.691868
0,28,-4.588182,2.106632,8.178353,-5.629711,-3.279801,-10.30049,-10.62721,-10.39272,6.90741,5.250474,0.09810456,14.67023,5.99618,3.842667,2.083403,-0.1166683,-0.6514033,1.156345,0.145955
0,29,-7.134287,0.4799243,4.60405,-7.041454,-5.244447,-12.22128,-13.87071,-13.23658,4.848406,3.078057,-1.644575,11.84914,3.563108,0.7715548,0.9696894,-3.237215,-4.078095,-1.081369,-2.624659
0,30,-2.470869,3.928632,8.631805,-2.609479,-0.4744566,-8.210714,-8.768253,-8.869143,8.708254,5.920901,3.097265,15.28856,6.414727,3.990573,5.005054,-1.299966,-3.064803,1.94042,-0.309033
0,31,-3.493966,3.575857,7.338278,-2.445682,-1.151798,-9.581568,-9.549772,-9.82291,7.556557,3.729487,2.513887,13.56438,4.389958,3.159427,2.321437,-3.538069,-6.660109,-0.3113529,-2.822356
0,32,-3.553219,3.388111,7.531563,-1.933305,-1.124324,-8.676958,-9.480872,-10.46019,8.486938,5.262954,2.424943,14.91972,6.309114,3.331812,2.071114,-3.240078,-6.611158,-0.3946697,-2.725721
0,33,1.544833,7.771428,10.78112,1.745897,3.60717,-2.811727,-3.861463,-4.855382,11.39612,5.353458,7.255864,17.52163,6.423946,7.415174,6.295124,-1.268677,-4.650052,2.944266,-0.08601117
0,34,-0.7162462,5.844612,6.731052,-1.866957,0.8774455,-6.051479,-5.372289,-6.440119,8.10111,2.125967,4.792817,13.35993,2.800836,4.580155,3.420925,-5.725865,-8.314587,-0.5954443,-3.696957
0,35,-1.775686,5.694545,6.103754,-0.1944017,0.6161842,-6.416131,-6.511816,-8.162435,7.802491,2.12734,4.964659,11.51401,1.21855,3.691269,1.715551,-6.405533,-9.448385,-1.764964,-4.735069
0,36,-1.572404,7.278028,5.069434,-0.2156019,0.5922198,-6.821378,-5.825301,-7.270617,7.733664,1.753299,5.601134,10.87023,-0.002866492,2.986015,0.9534078,-7.155333,-9.299187,-2.251306,-4.922894
0,37,-6.613687,2.537671,-1.497656,-5.703471,-4.779452,-11.23805,-10.7769,-11.32275,2.983861,-2.674965,1.666625,5.592701,-2.783241,-2.297073,-3.59203,-11.82447,-12.46123,-6.857489,-9.005185
0,38,-9.091169,-0.04061894,-3.428075,-7.099286,-6.962954,-13.05654,-13.51523,-14.98496,2.144378,-1.67713,0.3794281,4.230885,-2.451334,-5.242333,-4.701464,-12.75384,-11.99538,-8.116952,-9.691525
0,39,-12.36894,-3.414329,-6.903857,-10.41211,-10.55872,-16.17953,-15.74939,-18.50874,-1.277363,-3.2399,-2.862797,-0.5634669,-3.615311,-8.325983,-9.061802,-16.04759,-14.30346,-12.00591,-12.83296
0,40,-13.39368,-3.468369,-7.27497,-10.97011,-11.56638,-16.41122,-16.74381,-19.00014,-1.764817,-2.558849,-4.559712,-0.8955833,-4.246462,-9.332133,-10.05092,-15.75645,-14.01901,-12.43818,-12.9265
0,41,-6.353061,2.358402,-1.508092,-4.080341,-4.431158,-10.88957,-9.706118,-12.14553,3.292889,-0.08907233,2.487936,4.292291,-1.926769,-3.946713,-3.766956,-10.27543,-9.066603,-6.249549,-7.318009
0,42,-1.930938,6.445467,2.45244,1.166667,0.3956642,-5.972174,-5.578557,-6.435367,5.429661,-2.344197,7.29283,5.941284,-3.685004,0.8481169,-1.050484,-7.524868,-8.541235,-3.115057,-5.185902
0,43,-5.514087,4.368782,-2.785737,-2.054531,-3.22624,-7.761099,-9.076777,-10.16044,2.524565,-5.722023,4.993441,2.263412,-8.935705,-2.715588,-4.449847,-11.66715,-10.68103,-6.747935,-8.455436
0,44,-15.86783,-6.814236,-12.24067,-12.66727,-14.0988,-18.16231,-18.28281,-19.74904,-6.756418,-11.23861,-5.131023,-8.023296,-14.29568,-13.37503,-15.29576,-20.33822,-17.83974,-16.78274,-17.16552
0,45,-25.68562,-17.0126,-17.92319,-21.19349,-23.87109,-27.67785,-28.32495,-28.44199,-13.32443,-9.890224,-15.1984,-15.36945,-12.06962,-21.53079,-22.61102,-23.13948,-19.60106,-22.75719,-21.26674
0,46,-28.4741,-17.53241,-16.72206,-22.94535,-26.7074,-28.91528,-31.08518,-30.40191,-13.49374,-4.575905,-18.35316,-16.50483,-8.682022,-22.03618,-24.42014,-20.88596,-15.86597,-22.99545,-19.86117
0,47,-26.65716,-15.28314,-13.58507,-21.45541,-25.12062,-27.38009,-29.24219,-29.59308,-12.08465,-3.304155,-16.82749,-14.79504,-8.42321,-19.4979,-23.04935,-17.51025,-11.30389,-20.44588,-16.70502
0,48,-23.76112,-12.87139,-9.566825,-18.86236,-22.46059,-24.40014,-26.21167,-26.34678,-9.996601,-1.323648,-14.59027,-12.09711,-6.224786,-18.40123,-20.42091,-12.91849,-6.534708,-16.78528,-12.59924
0,49,-21.73801,-11.89751,-6.997874,-17.42765,-20.37206,-23.00905,-24.57289,-24.57766,-8.060825,-0.1666308,-13.22356,-8.970403,-5.203615,-16.3529,-17.86885,-11.41878,-6.056687,-14.81611,-11.26792
0,50,-18.35984,-9.176205,-4.065222,-14.44722,-16.67762,-20.30185,-21.6712,-22.66249,-5.220726,1.308817,-9.11013,-6.75996,-4.155686,-12.90925,-13.33974,-10.45933,-5.098803,-12.08613,-9.512261
0,51,-5.228533,4.030315,5.60813,-2.17613,-3.500371,-7.815078,-8.618865,-10.62811,5.13113,6.840975,3.208691,4.369891,2.396036,-0.7619112,-1.349645,-1.777703,2.202235,-1.254717,-0.1646614
0,52,-4.680355,4.432858,1.734925,-1.571141,-2.6618,-7.875174,-7.984688,-9.055864,4.157499,1.404181,3.537035,4.064354,-3.295922,-1.204286,-2.442957,-6.581018,-5.224731,-3.781275,-4.457644
0,53,-7.009853,1.801039,-2.793649,-4.839233,-5.018213,-10.78584,-9.986007,-11.08919,-0.3134106,-6.110161,0.7031356,-0.6061895,-8.651225,-4.531631,-6.003034,-13.21252,-14.0708,-8.646753,-10.70583
0,54,-4.282312,4.436361,-1.565524,-1.631552,-2.233414,-8.49763,-6.610504,-9.020084,1.460239,-3.537341,3.380178,-0.2155325,-5.268903,-3.361049,-3.826421,-11.53113,-12.21384,-6.73516,-8.689749
0,55,-5.276975,4.726652,-3.036769,-1.639029,-3.287618,-8.132233,-7.040755,-9.431129,1.595963,-0.3386048,2.303226,-1.224549,-4.107101,-4.159678,-4.7785,-11.02414,-10.1958,-7.151079,-8.107805
0,56,-2.956189,6.395387,-2.968568,1.410442,-0.8388203,-5.802689,-4.114349,-6.858422,2.528113,0.04960047,4.883545,-1.746784,-6.859902,-3.492417,-3.170583,-10.1461,-8.450341,-5.768318,-6.762208
0,57,-14.11519,-4.725451,-12.67547,-10.83824,-12.39112,-16.03066,-15.22034,-18.50041,-6.697879,-6.546759,-6.773885,-10.04912,-13.74158,-14.23514,-12.89568,-19.90484,-17.17749,-15.88243,-16.37035
0,58,-10.2742,-0.9347715,-9.822155,-7.670267,-8.992274,-12.5947,-11.29436,-14.83114,-3.634783,-3.593518,-3.481295,-5.994485,-7.05203,-11.53163,-9.269661,-14.5861,-11.38068,-11.30501,-11.192
0,59,-6.075385,3.675737,-6.792648,-1.734394,-4.370528,-8.197861,-7.020497,-9.949651,-0.5182665,-3.569768,1.704121,-3.320213,-5.534321,-7.986898,-7.369353,-11.30821,-9.683277,-8.277139,-8.409771
0,60,-3.658323,6.04564,-5.38776,0.2422543,-2.166698,-4.211673,-3.953521,-6.819393,0.8532392,-3.283914,4.600566,-3.301564,-7.109534,-6.180342,-5.597874,-10.81422,-8.175139,-7.027511,-7.248694
0,61,-11.7893,-1.404746,-14.5179,-8.054666,-10.40104,-12.1644,-12.05661,-14.06026,-7.230218,-11.48669,-2.560131,-12.35533,-17.46328,-14.14011,-13.40644,-19.30903,-15.19697,-15.08507,-15.12909
0,62,-12.47842,-1.21983,-15.91792,-7.898407,-10.94646,-12.99011,-12.55843,-14.86834,-8.462515,-12.69217,-2.631901,-14.97954,-17.17803,-14.22303,-14.90155,-20.09493,-15.99076,-16.11712,-15.94321
0,63,-8.903676,1.730807,-13.46471,-4.295888,-7.191183,-9.173248,-9.143413,-11.7399,-6.064035,-12.21354,0.4527616,-12.23024,-14.60351,-10.86871,-11.6678,-18.10836,-15.64094,-13.44772,-14.09849
0,64,-18.09768,-6.620987,-20.50816,-12.99327,-16.42561,-16.52719,-18.45342,-19.73664,-12.15514,-14.78139,-7.185118,-19.19374,-17.53202,-18.9281,-19.28969,-24.71634,-20.63819,-20.99289,-20.60868
0,65,-8.220758,3.353239,-11.65419,-4.562946,-7.082523,-7.072309,-8.034684,-9.217606,-3.019913,-6.721498,1.859783,-9.009647,-9.997631,-10.41637,-10.32283,-16.2109,-11.72796,-12.01677,-11.65261
0,66,-12.2083,-1.678825,-15.82757,-8.102564,-11.05111,-11.03828,-11.09473,-13.54148,-7.652224,-10.8057,-2.78432,-14.31625,-16.49066,-15.46777,-15.62365,-21.18994,-16.99216,-17.1746,-16.78469
0,67,-12.44667,-1.601899,-15.65086,-8.440386,-11.26056,-11.23641,-11.36199,-14.41759,-7.714597,-12.11518,-2.044841,-14.45757,-18.40951,-16.22162,-16.11327,-22.20522,-17.45386,-17.74614,-17.40043
0,68,-22.66648,-11.95849,-23.989,-19.29593,-22.15633,-22.3253,-21.28219,-25.31429,-17.02275,-18.42598,-12.13578,-23.32101,-21.61884,-25.63687,-26.31835,-27.88238,-21.01077,-25.78695,-23.5862
0,69,-29.59013,-19.19347,-27.09366,-24.95866,-29.01874,-29.00484,-27.99813,-32.78172,-21.8892,-17.65804,-20.00488,-28.20076,-19.65611,-32.71733,-32.42623,-29.53451,-22.63463,-30.27345,-26.5975
0,70,-26.52434,-16.50278,-22.01935,-22.43595,-26.21495,-26.74121,-25.50723,-30.28266,-17.98362,-12.14987,-17.81679,-22.78094,-12.76626,-26.63717,-28.58624,-22.93401,-15.51694,-25.19572,-20.80511
0,71,-21.80871,-10.97337,-16.05549,-18.31004,-21.58435,-21.92855,-21.29318,-24.40505,-13.35704,-9.817895,-12.74833,-17.11134,-10.49094,-22.14545,-24.10873,-18.09587,-11.08919,-20.26422,-16.1068
0,72,-13.29392,-4.144121,-7.952495,-9.81302,-12.98163,-14.1257,-12.76222,-15.72506,-5.769149,-4.960883,-3.317511,-9.458278,-5.74663,-13.13315,-16.69988,-11.14754,-4.513418,-12.80337,-9.096936
0,73,-6.545037,2.514142,-1.382901,-3.489133,-6.124396,-7.17035,-6.326726,-9.979627,-0.1305295,-0.7239425,2.78229,-3.510291,-1.414846,-7.074656,-9.450797,-5.443046,0.7032925,-6.289183,-3.240134
0,74,-8.127175,0.7222316,-2.581141,-4.92797,-7.708076,-7.556371,-7.652283,-12.50683,-1.281482,-0.8279558,0.5515836,-4.510817,-3.181643,-9.202299,-10.70878,-6.752907,-0.2004161,-7.747876,-4.550162
0,75,-13.25078,-3.258757,-6.859566,-9.492915,-12.63182,-12.92668,-12.95867,-16.84089,-6.456737,-5.624931,-4.728274,-10.11408,-6.993882,-14.52946,-15.98432,-11.28062,-5.921268,-12.6708,-9.560248
0,76,-6.744309,3.157104,0.1755128,-3.654555,-6.419177,-6.131836,-6.333756,-9.776626,0.4335913,-0.6089548,2.906069,-2.598,-1.516061,-7.539778,-10.45229,-5.295438,0.69457,-6.626517,-3.314691
0,77,-11.04948,-1.043405,-3.878138,-8.231689,-10.92563,-10.01722,-10.35814,-14.69583,-3.377208,-5.023805,-0.5886489,-6.215165,-6.436149,-12.26531,-15.29365,-9.763204,-2.714504,-11.12998,-7.443103
0,78,-30.94655,-20.69156,-19.30905,-27.8782,-30.7381,-29.57464,-30.75004,-36.01451,-20.15797,-15.69022,-20.07582,-23.8822,-15.2926,-30.15462,-32.20278,-25.17533,-17.08742,-28.11088,-23.33953
0,79,-34.44978,-22.89302,-19.13592,-30.01361,-33.91049,-33.02985,-34.6957,-37.94386,-21.93803,-13.5676,-24.17232,-26.08324,-12.63511,-32.5418,-34.84884,-24.60477,-17.72907,-29.57936,-24.13713
0,80,-32.82086,-21.1785,-15.18391,-28.78561,-32.35469,-31.35904,-33.56972,-36.49894,-19.88104,-10.1166,-23.24121,-23.3796,-9.200911,-30.64786,-31.89775,-20.47943,-13.29032,-26.25138,-20.47857
0,81,-28.16003,-17.93911,-9.358307,-24.20885,-27.60405,-26.42107,-29.12887,-31.02886,-14.57851,-4.686743,-18.36038,-17.53002,-4.626374,-26.71817,-26.46213,-15.49535,-8.603127,-21.21497,-15.62642
0,82,-29.70841,-18.93359,-9.854979,-26.25322,-29.38724,-28.32326,-30.3854,-32.90979,-15.09573,-3.723122,-20.90425,-17.22766,-4.955803,-26.88713,-28.39752,-16.61403,-9.657114,-22.80521,-16.93146
0,83,-34.162,-23.15903,-11.62477,-30.64292,-33.83895,-32.84825,-35.05236,-39.05408,-18.29787,-4.652802,-25.85746,-19.93053,-5.256426,-30.27958,-32.0788,-18.64557,-11.41707,-25.91698,-19.47711
0,84,-16.18024,-5.737615,4.002525,-13.06851,-15.69901,-15.62745,-17.265,-21.40647,-2.047744,8.554075,-9.034729,-2.647265,8.131172,-12.18895,-14.77596,-3.757256,1.801124,-9.566206,-4.401117
0,85,-12.8746,-2.670655,5.113685,-10.49715,-12.0929,-12.53239,-14.54546,-17.72352,0.6342918,6.160968,-4.75772,0.9049244,5.646088,-9.146138,-11.69573,-5.56652,-1.825513,-8.570842,-5.314425
0,86,-18.89494,-7.623398,-1.128491,-15.52009,-17.68591,-17.06847,-21.1392,-23.03593,-4.572832,0.7838581,-10.37636,-4.534039,-0.3228849,-15.0432,-16.83516,-11.56571,-8.594388,-14.26051,-11.40837
0,87,-17.33102,-5.9043,-0.01902414,-13.62621,-15.912,-15.48843,-19.59377,-20.87387,-2.721621,3.160803,-8.178562,-3.723789,3.182358,-13.3992,-14.8938,-11.09838,-8.67125,-13.19216,-10.66436
0,88,-24.72075,-12.30988,-7.976265,-20.68705,-23.23342,-22.068,-26.90853,-26.94586,-9.926905,-4.262953,-15.77618,-11.23803,-5.182282,-19.63384,-22.8413,-19.17973,-17.58743,-21.18344,-18.92186
0,89,-25.57732,-12.36584,-10.07687,-21.38946,-24.15503,-22.99397,-27.76316,-27.32808,-9.943663,-3.783836,-15.84197,-11.77218,-5.650831,-18.30534,-23.7257,-20.20216,-17.44222,-22.07285,-19.50904
0,90,-14.65849,-2.523351,-0.01850278,-10.63476,-13.26902,-11.95225,-16.33799,-17.55901,-0.3175529,4.143744,-5.306414,-1.928977,2.04677,-9.010857,-13.87491,-11.09653,-8.527194,-12.41578,-10.17057
0,91,-13.20447,-0.8570223,0.9146258,-8.86762,-11.60839,-10.55102,-14.48221,-15.79138,-0.8871143,1.17052,-5.028024,-2.516979,-2.898292,-9.811521,-14.10532,-11.87004,-11.20958,-12.6364,-11.24756
0,92,-28.51544,-16.18203,-14.8545,-25.48981,-27.71823,-25.95415,-28.76653,-31.14777,-15.98875,-11.89993,-20.22216,-18.15712,-14.40157,-25.16264,-30.02308,-26.55068,-23.9981,-27.98372,-25.50488
0,93,-29.86508,-18.41649,-18.46885,-26.88651,-29.22444,-28.27117,-30.2971,-32.02396,-17.34428,-12.612,-21.49271,-19.19123,-15.19159,-25.52101,-30.75815,-26.84698,-23.0902,-28.5118,-25.6462
0,94,-23.43375,-11.91839,-11.31253,-19.09642,-22.3787,-21.36894,-24.30742,-26.4279,-10.69072,-5.088233,-16.26145,-11.78759,-7.453568,-18.72097,-24.00706,-18.42476,-15.80551,-21.08809,-18.17803
0,95,-11.46473,-0.4877501,2.241945,-7.978766,-10.61536,-9.95808,-12.74226,-16.20725,1.234601,7.090692,-4.4031,0.7467538,5.97457,-5.114247,-11.22862,-4.936834,-1.101147,-7.978931,-4.692881
0,96,-18.05172,-6.48514,-5.416348,-13.83973,-17.09439,-16.86972,-18.96919,-22.6917,-6.10112,-1.429977,-10.99403,-6.983446,-3.409204,-11.6641,-19.47769,-12.384,-9.127333,-15.55105,-12.33489
0,97,-31.9304,-20.36674,-18.42825,-27.88416,-30.91146,-31.23324,-32.98789,-36.57454,-19.02646,-11.44061,-25.32146,-20.39557,-13.97474,-25.42614,-31.74204,-25.40412,-22.16659,-28.61124,-25.37347
0,98,-29.76793,-19.12514,-15.31616,-25.65128,-28.65846,-29.37777,-30.89598,-34.31705,-16.39703,-8.401236,-23.05427,-17.39943,-12.49614,-24.4946,-29.06142,-22.82813,-19.45604,-26.07699,-22.82999
0,99,-23.45355,-12.05273,-9.519627,-19.59709,-22.53883,-23.03183,-24.5687,-28.56605,-10.44073,-3.939735,-17.30561,-10.11823,-7.627391,-18.32496,-23.70222,-16.37482,-12.93577,-19.87626,-16.4807
0,100,-23.76406,-12.00675,-8.421649,-20.24574,-22.82621,-23.72285,-25.14887,-28.93708,-9.90447,-4.001947,-17.50057,-8.647591,-5.280506,-17.54921,-24.34967,-17.02103,-15.0038,-20.50147,-17.4243
0,101,-18.45388,-7.833354,-1.740512,-14.91563,-17.17038,-17.46048,-20.24319,-22.12246,-4.561817,-1.109848,-11.47946,-3.066208,-2.203522,-12.39946,-19.0754,-13.6119,-13.75663,-16.17523,-14.23662
0,102,-10.42833,-0.3455317,4.130808,-7.302125,-9.249538,-9.617784,-12.05346,-15.0361,1.784906,2.211145,-3.458078,3.639657,-0.04706295,-4.782315,-12.0569,-7.555768,-7.095348,-9.23677,-7.670421
0,103,-7.728903,2.85948,4.329101,-6.594751,-7.09097,-7.887691,-9.01623,-12.72025,2.348398,0.06519596,-1.342998,4.581995,-1.114399,-2.654237,-10.2427,-7.793763,-6.958677,-8.042677,-7.019759
0,104,-9.070625,1.44042,2.019116,-7.048913,-8.227468,-8.5009,-9.892467,-14.03128,1.31721,-0.3623794,-2.380273,2.664618,-1.337155,-4.570249,-12.10707,-10.25369,-9.913014,-10.30255,-9.358747
0,105,-20.7886,-9.882039,-8.920656,-18.35297,-20.05881,-18.83045,-21.36354,-24.85555,-8.575194,-8.658678,-13.37672,-7.474071,-10.32245,-14.91605,-23.93405,-20.76499,-19.77832,-21.62529,-20.02194
0,106,-25.4833,-14.95259,-14.41957,-23.87336,-25.21255,-24.02065,-25.14866,-30.39523,-12.81937,-10.82168,-18.06081,-12.20022,-13.04014,-20.52314,-28.72951,-25.92843,-23.13788,-26.70463,-24.43648
0,107,-20.90984,-10.8304,-10.80004,-18.8975,-20.6522,-19.26611,-20.40307,-26.36982,-8.868567,-6.623607,-14.38924,-7.92519,-8.500314,-15.96854,-24.53775,-20.71291,-17.99382,-22.00739,-19.54584
0,108,-20.71712,-9.883823,-8.486351,-18.83176,-20.42508,-19.2385,-20.63527,-25.88535,-7.718639,-5.127424,-13.88663,-6.486097,-5.829693,-14.17389,-24.09354,-19.51324,-17.27704,-21.22962,-18.69826
0,109,-16.65616,-6.51584,-5.344519,-15.39691,-16.24926,-15.31981,-16.85427,-22.00009,-5.485505,-4.748035,-10.42821,-4.398817,-5.233644,-10.96939,-19.51617,-17.3143,-15.98373,-17.81036,-16.27752
0,110,-20.90246,-11.88089,-9.82034,-18.86827,-20.26367,-19.61484,-20.84674,-26.67575,-9.728642,-8.582819,-14.88613,-8.843922,-12.43053,-15.93616,-23.91397,-21.71972,-20.2641,-22.27321,-20.78701
0,111,-22.62825,-13.29371,-9.225905,-20.49413,-22.17674,-21.28377,-22.56044,-28.01378,-10.04958,-6.002306,-16.32642,-9.47895,-9.637908,-16.58236,-25.00637,-20.3625,-17.68499,-22.37529,-19.80535
0,112,-18.73904,-8.534305,-5.019882,-16.64324,-18.30524,-17.02235,-19.46467,-24.08779,-5.626,-2.088572,-12.07741,-4.109799,-4.820473,-12.23837,-20.1122,-14.6025,-11.20142,-16.98339,-14.11995
0,113,-18.21783,-8.658489,-4.352831,-16.73894,-18.19415,-16.84276,-18.44858,-23.62966,-4.971001,-0.9895706,-11.41327,-3.240929,-4.012369,-11.31713,-20.25866,-13.52707,-8.883663,-16.44046,-12.9322
0,114,-18.92319,-9.805914,-3.864896,-17.82965,-18.93214,-18.70886,-19.54033,-24.95072,-6.006847,-1.464855,-12.38173,-4.180049,-3.16305,-10.86584,-20.34648,-12.89827,-8.246608,-16.24538,-12.63732
0,115,-11.50516,-3.009435,3.683573,-10.91621,-11.43953,-11.69747,-12.74155,-18.88205,-0.04477387,1.936593,-6.265396,3.623215,1.700449,-3.871217,-12.90737,-5.570522,-2.300027,-8.693536,-5.793643
0,116,-11.27534,-2.78202,4.625033,-11.14078,-11.12721,-11.33004,-12.99886,-18.37344,0.556152,1.672685,-6.191281,4.963068,0.6335105,-2.614719,-12.116,-5.880175,-3.268329,-8.472713,-6.139916
0,117,-4.084838,3.961475,10.61969,-3.898637,-3.759102,-4.838324,-6.163526,-11.91124,7.483281,6.532446,1.07794,12.93809,5.687212,4.644315,-5.158938,0.01774883,2.030001,-1.842278,-0.08494365
0,118,5.292198,12.48689,16.62048,5.750183,6.059975,4.293442,3.297006,-3.29193,14.30698,9.01637,9.390902,20.18333,8.536629,12.84702,2.724915,4.450933,3.52632,4.632432,4.520309
0,119,5.268079,11.93401,14.03345,5.359276,6.13804,4.313082,3.620465,-3.016653,12.40194,3.741569,9.964776,17.2982,2.464483,11.92143,1.626528,0.04183789,-1.605268,2.182573,0.9149868
0,120,1.202233,8.857388,9.985846,1.828085,2.039131,2.490581,-0.3460777,-5.505459,9.198708,0.2747458,7.798979,12.88922,-0.9118477,7.554546,-2.454681,-3.698128,-4.223989,-1.693641,-2.468239
0,121,-2.043016,5.889057,7.300105,-1.430428,-1.410545,-1.637059,-2.833532,-8.611008,6.758252,0.9245729,4.4272,9.461901,-2.551883,3.871986,-5.829184,-6.337586,-5.527022,-4.854807,-4.853508
0,122,-7.504847,0.3486071,1.972876,-5.974427,-6.765501,-8.017056,-7.797068,-15.00891,1.904845,-1.906602,-1.076017,3.854084,-6.554117,-0.5394066,-12.03933,-11.15897,-9.94477,-10.43779,-9.884553
0,123,-11.84176,-3.979818,-2.372313,-10.17208,-10.98065,-12.11658,-12.56271,-19.12338,-1.559093,-4.461007,-5.12456,0.3963665,-9.476501,-4.30248,-15.11041,-14.84916,-13.34645,-14.00893,-13.48179
0,124,0.2184771,7.724753,6.167589,1.695186,1.124834,-0.683547,-0.1149438,-7.19564,8.654469,2.106807,6.894022,10.81232,-3.13279,6.641618,-4.746927,-6.883797,-6.178677,-4.391272,-4.828415
0,125,-3.259969,4.952129,2.707533,-2.330162,-2.344391,-3.13561,-3.698351,-10.02081,4.965006,-1.969949,3.605112,6.473953,-5.817531,2.49217,-7.565239,-11.7529,-11.73055,-8.346642,-9.346366
0,126,-1.502526,6.695252,5.405385,-0.3391835,-0.5887945,-1.711997,-1.756966,-8.004102,7.196648,0.4331397,5.39483,9.022195,-2.904963,4.392925,-6.614835,-9.691283,-10.25217,-6.800587,-7.630451
0,127,-5.480256,2.357149,1.497558,-4.123183,-4.62653,-6.009064,-5.306814,-12.39663,3.577255,-2.899664,2.045202,5.196752,-7.020429,-0.8235567,-11.12273,-13.73547,-13.57866,-11.01418,-11.46134
0,128,-8.516916,0.5338535,-1.86556,-7.138096,-7.772501,-8.672739,-8.473101,-14.78048,0.7585432,-4.487005,-1.081867,1.789173,-8.10687,-2.435322,-13.68557,-15.65139,-14.87443,-13.33174,-13.39975
0,129,-17.31355,-7.394189,-10.0824,-14.07618,-16.36127,-17.1749,-17.07278,-22.87639,-5.676203,-6.455791,-9.912598,-5.260904,-11.05193,-9.994511,-22.19746,-21.21498,-19.96818,-20.73345,-19.63535
0,130,-18.82992,-9.928334,-9.945128,-15.26648,-17.89291,-18.81031,-18.80579,-24.7359,-5.957308,-4.510064,-10.5753,-5.860688,-8.501077,-10.43038,-22.6201,-20.01005,-17.43887,-20.60817,-18.66125
0,131,-20.94258,-11.9745,-11.7417,-18.42732,-20.35807,-20.02087,-21.12407,-26.40741,-7.816932,-6.663508,-12.67658,-6.995747,-10.18275,-12.25181,-24.03136,-21.44919,-18.08752,-22.05659,-19.93878
0,132,-22.17967,-11.75555,-11.79274,-19.22844,-21.72191,-19.52263,-22.2346,-27.5455,-8.07838,-5.925027,-14.50102,-6.863593,-10.33239,-11.87844,-25.80404,-20.85617,-17.13728,-22.66677,-19.88033
0,133,-21.54005,-11.88606,-12.35107,-17.8549,-20.74715,-19.42722,-22.05057,-27.31087,-9.002977,-7.699475,-14.87514,-7.576015,-12.13125,-11.53307,-24.87525,-19.72383,-17.01903,-21.62594,-19.29788
0,134,-23.98706,-13.75824,-14.05054,-20.96601,-23.51876,-23.09736,-23.99906,-29.71338,-11.94947,-9.429829,-18.30378,-10.43598,-13.63198,-15.41505,-27.88244,-21.57434,-18.80414,-24.02494,-21.29101
0,135,-11.55823,-1.524529,-2.892963,-8.739657,-11.04097,-10.22951,-11.21106,-16.96604,-0.9886964,-2.579117,-4.66452,-0.1205563,-6.044964,-3.322429,-17.37336,-12.94923,-10.8806,-14.00135,-12.07568
0,136,-6.150156,3.553349,-1.633595,-3.900729,-5.453918,-5.361954,-5.760035,-12.0533,1.405021,-5.386309,0.9075758,1.700605,-9.807249,1.727836,-13.16577,-13.10548,-11.94912,-11.45627,-11.21588
0,137,-8.37431,1.819034,-3.234733,-5.676615,-7.453968,-6.803422,-8.150496,-13.88434,-0.2717369,-7.21847,-1.137534,0.1213742,-13.12775,-1.970748,-14.98779,-15.44575,-14.6661,-13.58403,-13.55388
0,138,-10.79592,-0.2237713,-4.590443,-7.634644,-9.610211,-10.76776,-11.17026,-15.43618,-1.925661,-6.757072,-4.138713,-1.20837,-13.36267,-5.070903,-16.00069,-15.94102,-15.78572,-14.5765,-14.51008
0,139,-12.53895,-1.310829,-7.038389,-9.774307,-11.41296,-12.88316,-12.81876,-15.99945,-3.508984,-8.610346,-5.351355,-3.191922,-15.83151,-7.62661,-17.68924,-19.04969,-18.82033,-16.90963,-17.08314
0,140,-12.43397,-0.7754136,-6.760164,-8.119685,-10.6066,-11.91637,-13.28452,-15.58936,-3.765077,-10.91458,-4.997618,-3.431117,-17.32403,-8.918092,-17.79641,-19.66796,-21.89828,-17.21222,-18.26483
0,141,-20.55169,-9.12046,-12.1086,-16.38505,-18.82756,-19.07241,-21.0709,-24.90101,-11.10172,-15.83275,-13.22699,-11.59359,-23.23259,-16.48033,-25.35973,-26.37228,-27.70018,-24.65878,-25.14102
0,142,-11.06143,0.5267131,-3.000859,-6.313568,-9.353266,-8.51101,-11.63672,-16.12578,-1.339243,-5.185856,-3.45106,-2.070106,-11.45102,-6.74823,-15.41259,-15.26282,-15.31449,-14.20397,-14.0004
0,143,-3.693057,7.136797,2.511863,0.3616789,-2.200043,-1.503555,-3.755918,-8.063948,5.114553,-0.2363172,4.434494,4.109406,-6.874815,-1.152238,-8.71484,-10.27083,-9.853228,-8.158732,-8.22803
0,144,-1.325852,9.403279,5.170071,2.585214,0.3144554,-0.4477554,-1.584487,-5.9806,6.878417,0.6277376,7.147925,5.610616,-5.741163,0.6616361,-6.34621,-8.774995,-8.77956,-6.116874,-6.581491
0,145,-13.54469,-1.817998,-7.003005,-10.39042,-12.15615,-12.68371,-13.89011,-18.99734,-5.494955,-9.762228,-6.164894,-6.861276,-13.08182,-11.16248,-17.54518,-19.84416,-19.91677,-17.50456,-17.76141
0,146,-16.67094,-5.086501,-9.642615,-12.36661,-15.09415,-14.7794,-17.12911,-21.61315,-6.859824,-7.735397,-9.514399,-8.304618,-10.29125,-14.22389,-19.43128,-20.42495,-20.53614,-19.21012,-18.84967
0,147,-15.32017,-3.103314,-9.348113,-10.90709,-13.8496,-13.61634,-15.71852,-20.08728,-6.124359,-7.905476,-8.489152,-7.013711,-8.934505,-13.55112,-18.89267,-18.80912,-19.22915,-17.92843,-17.41747
0,148,-22.69228,-9.726579,-15.15164,-18.2208,-21.60386,-19.73159,-22.94381,-26.04417,-11.67145,-10.1746,-16.20491,-12.18406,-10.78737,-19.79873,-25.79251,-22.47553,-21.88785,-23.49975,-21.70317
0,149,-24.22818,-11.57121,-15.28823,-20.08167,-23.38002,-21.25864,-24.22021,-28.41357,-12.19303,-10.53375,-16.55672,-12.50664,-10.07272,-21.39744,-27.74285,-23.35468,-21.64148,-24.84896,-22.38943
0,150,-25.76609,-14.2877,-16.97748,-22.00251,-24.67408,-23.91013,-26.07062,-31.16492,-14.36629,-12.63005,-18.85643,-14.52332,-13.47662,-23.98948,-27.99692,-26.04499,-24.90166,-26.49771,-24.85137
0,151,-10.63821,0.6717684,-3.40606,-7.001756,-9.215052,-7.928193,-11.47434,-14.43076,-0.4445356,-0.8784627,-4.741436,-0.2613876,-2.419974,-8.993331,-12.2817,-13.45879,-14.39609,-12.37071,-12.21141
0,152,2.114711,13.1741,5.242445,4.165241,3.789718,3.22514,0.8594173,-2.099212,8.723363,0.6398222,7.504376,9.849908,-2.108077,2.182517,-0.5922207,-8.473249,-11.88995,-3.333207,-6.003375
0,153,-10.66823,-0.07738251,-7.374775,-8.066887,-8.758816,-9.764217,-11.99712,-14.68068,-3.587693,-12.45575,-4.503984,-2.376399,-15.65324,-11.2433,-13.69065,-21.749,-25.94444,-16.47774,-19.41292
0,154,-18.65053,-8.096563,-14.84459,-15.18824,-17.00089,-18.30374,-18.81899,-22.07043,-10.45043,-15.45772,-11.92283,-10.6321,-18.26902,-20.14652,-22.74915,-27.65455,-30.53922,-24.12183,-25.5158
0,155,-13.54749,-1.789588,-9.223308,-10.67155,-12.13835,-12.60139,-14.11092,-16.82216,-5.310482,-10.88952,-5.823309,-5.804311,-11.86751,-13.89824,-17.13418,-21.51053,-22.99304,-18.11754,-19.05991
0,156,-11.29607,-0.5324889,-6.853005,-9.094503,-10.02529,-10.38272,-11.5305,-16.90192,-4.00333,-8.782094,-4.451997,-4.818601,-10.47733,-12.38023,-14.29913,-19.59844,-20.1001,-15.88585,-16.80561
0,157,-19.4459,-9.40552,-15.30248,-17.38721,-18.47129,-18.40628,-19.41843,-24.4354,-11.55599,-13.72993,-13.19352,-12.41603,-17.15208,-19.54894,-21.80895,-25.70135,-24.81033,-22.93888,-23.07724
0,158,-23.54472,-14.2713,-16.87528,-21.62684,-22.74339,-23.38398,-23.48782,-27.72556,-14.69099,-13.25167,-18.31448,-15.24535,-17.49592,-23.24443,-25.00099,-26.49424,-25.34589,-25.31393,-24.6697
0,159,-27.17315,-19.01799,-18.79387,-25.33624,-26.3947,-27.2785,-27.44426,-32.40113,-17.32358,-13.03163,-22.11204,-17.79967,-17.67697,-26.36043,-26.72557,-27.36687,-24.94965,-27.01216,-25.74398
0,160,-29.15706,-19.75496,-17.64035,-28.50305,-28.69652,-28.71967,-30.17413,-34.30199,-18.07526,-12.12709,-24.94118,-17.08924,-15.3539,-27.83198,-26.88109,-26.19592,-23.42836,-26.7493,-25.01445
0,161,-16.1423,-7.639663,-5.335257,-15.46162,-15.59304,-16.27085,-17.50649,-22.86321,-6.783368,-3.738535,-13.79378,-3.458509,-5.497647,-14.70782,-15.00191,-13.23927,-12.26754,-14.04169,-12.88957
0,162,-7.679834,0.9166408,1.601513,-7.840916,-7.155909,-7.839083,-9.390841,-14.73351,-0.6342524,-1.119723,-5.999277,3.265587,-0.1769374,-6.618104,-6.983755,-6.878291,-7.290669,-6.563734,-6.42809
0,163,-0.06834538,8.060472,6.904912,0.2855296,0.959891,-1.328296,-2.355513,-7.420228,5.025493,0.4340779,2.938298,8.365865,2.079533,-0.8673,0.4928843,-2.064324,-3.267998,-0.03094372,-1.026945
0,164,-0.9243138,5.872908,4.946904,-1.986003,-0.319298,-1.941531,-3.038334,-8.072186,2.795578,-5.013746,2.406639,6.882647,-1.737657,-1.519873,-1.334759,-4.659916,-5.89457,-1.945609,-3.34047
0,165,-10.3724,-3.603652,-2.532557,-12.00276,-9.888577,-11.44892,-12.8282,-18.16166,-5.726928,-10.99514,-8.258953,-0.8737463,-8.270339,-10.23623,-9.199161,-11.81965,-12.84794,-9.823022,-10.93439
0,166,-21.37674,-14.69319,-11.5083,-22.4418,-20.95327,-22.22066,-24.04169,-29.47055,-14.45475,-15.28381,-19.5393,-9.391113,-12.18165,-19.38808,-18.74309,-18.58879,-18.62035,-18.46883,-18.39742
0,167,-18.749,-11.82383,-7.605687,-20.75244,-18.87701,-18.57491,-20.98418,-26.81621,-11.42141,-10.09417,-17.5491,-6.370389,-7.336489,-16.22276,-15.75057,-14.03912,-12.30098,-14.86596,-13.8348
0,168,-8.207571,-1.221872,2.788265,-9.65988,-7.958037,-8.49256,-11.09203,-16.37513,-2.05659,-2.393894,-7.914532,3.656257,0.1283505,-5.698441,-5.143814,-3.479662,-3.168905,-4.162248,-3.801841
0,169,-11.28765,-3.978924,-1.176828,-12.26061,-10.61042,-13.03561,-15.1496,-19.69245,-5.954351,-7.523498,-10.45766,-0.5720723,-4.458626,-8.53943,-7.142126,-6.505837,-6.607152,-6.578256,-6.785971
0,170,-12.83289,-7.670858,-3.166931,-14.77946,-12.54626,-15.26894,-16.16076,-21.62773,-8.192045,-9.082405,-13.23807,-1.96734,-6.91762,-10.84199,-8.820536,-7.905015,-7.594443,-8.214683,-8.26533
0,171,-3.257133,1.339165,3.875414,-4.7509,-2.37624,-6.125137,-7.199937,-12.2813,-0.0386613,-5.506257,-3.60793,6.616634,-5.448727,0.07077081,0.09642848,-2.429753,-4.031383,-0.6576099,-2.502105
0,172,8.936852,14.00713,14.35565,7.50999,10.18872,6.705826,4.57311,0.01836563,11.15869,1.09832,10.37387,17.20369,1.833644,11.83402,11.83045,5.714869,3.387506,9.679905,6.571976
0,173,-1.767114,2.213343,2.882015,-4.146275,-0.8079262,-4.834838,-5.359852,-11.60599,-0.06692868,-8.333021,-1.526375,5.444066,-7.108101,1.880816,0.8949053,-6.353199,-8.935861,-2.055233,-5.321938
0,174,-15.82155,-11.63116,-9.862777,-16.93306,-14.94126,-17.24128,-18.52005,-26.1482,-12.44313,-16.78306,-15.92709,-7.590898,-14.59461,-12.048,-13.84939,-17.84099,-20.21259,-15.54289,-17.55261
0,175,-19.18561,-14.36353,-9.152814,-19.49007,-18.07469,-20.24612,-22.7314,-29.11007,-12.551,-13.68067,-16.98447,-8.42145,-11.29465,-13.92772,-14.96317,-17.19363,-17.8515,-16.15304,-17.06365
0,176,-27.26035,-21.01519,-16.21577,-27.74452,-26.72742,-27.88,-30.11989,-34.93582,-18.78569,-15.65991,-26.21803,-14.27133,-15.4731,-21.40216,-23.26032,-21.9882,-21.35418,-22.91948,-22.35534
0,177,-33.32287,-27.70694,-19.08349,-33.4841,-32.86869,-33.51885,-36.36425,-40.85679,-23.56594,-16.28248,-33.57666,-18.62798,-15.40232,-26.20187,-28.05733,-23.47933,-22.8981,-26.60403,-25.09254
0,178,-29.01641,-23.00015,-13.96708,-29.09903,-28.45154,-28.9977,-32.72361,-35.39584,-19.16555,-11.01243,-28.8853,-15.03018,-10.07065,-20.43951,-22.28387,-17.65926,-16.57579,-20.97447,-19.37407
0,179,-23.76126,-18.23974,-9.476569,-25.22717,-23.16509,-24.50798,-28.09933,-31.71365,-13.95412,-7.605718,-24.12023,-8.099067,-5.555863,-15.91183,-15.74974,-14.7897,-14.51172,-16.27256,-15.82771
0,180,-17.6645,-12.22005,-2.862925,-18.14024,-16.82245,-18.16392,-22.33392,-24.68693,-6.416219,1.136574,-17.44588,-0.4558461,4.206094,-8.772504,-9.220925,-7.320588,-7.425661,-9.44725,-8.738507
0,181,-7.380462,-2.478755,4.631332,-8.194205,-6.582155,-8.285197,-12.00786,-15.11076,1.465623,4.553333,-6.426148,7.408677,8.212808,0.6671475,-0.2601955,0.3498286,0.5968146,-0.5726435,-0.4261295
0,182,-18.36737,-14.58094,-7.136078,-19.6432,-17.77601,-19.84966,-22.63535,-25.75693,-10.51501,-8.328766,-18.79461,-3.352997,-5.096478,-11.21336,-12.3077,-10.99888,-11.94564,-12.17527,-12.29378
0,183,-10.22823,-5.384565,-0.7101643,-10.8996,-9.440243,-12.93533,-14.81487,-18.05447,-2.269202,-0.3274922,-10.11647,4.511711,1.441813,-1.491246,-4.132452,-3.166018,-3.08863,-3.963392,-4.010571
0,184,-8.22396,-3.415488,-1.749316,-10.63822,-7.542962,-12.01848,-12.69722,-16.37448,-3.288973,-7.270696,-7.278966,2.949023,-4.943533,-0.477865,-3.449127,-7.421606,-8.107735,-5.124379,-6.898471
0,185,-17.41722,-12.13534,-11.53693,-19.02625,-16.70279,-19.63412,-21.74933,-25.04889,-12.68222,-16.00182,-16.88501,-6.823544,-13.08513,-10.06588,-12.78675,-15.36051,-16.28271,-13.86339,-15.30651
0,186,-21.55925,-16.50731,-15.40095,-23.37131,-21.20523,-23.36724,-25.35277,-29.81587,-15.47484,-15.43174,-20.43853,-10.55126,-14.43677,-13.73104,-16.0555,-17.73285,-15.58901,-16.9341,-17.11987
0,187,-15.43883,-9.912353,-8.673187,-16.50867,-15.0722,-16.05111,-18.91753,-23.42315,-9.189394,-7.657885,-13.52851,-5.832146,-6.04087,-8.111116,-9.848445,-10.36496,-7.080631,-10.26208,-9.693166
0,188,-15.26984,-9.644126,-8.487526,-16.25158,-14.69419,-15.48494,-19.18578,-22.7202,-9.889646,-8.985862,-14.20114,-6.57149,-6.973846,-7.225612,-9.249443,-10.38503,-8.492638,-10.05218,-10.13674
0,189,-17.55065,-11.83617,-10.39713,-18.77596,-16.77753,-19.34177,-21.91269,-24.56434,-11.97339,-9.92241,-16.76265,-8.956484,-9.520013,-9.405379,-10.17118,-12.86103,-11.23233,-11.9229,-12.45167
0,190,-16.78404,-11.21064,-11.46647,-16.87853,-15.81378,-17.60645,-20.34478,-22.93446,-11.45596,-10.26827,-15.24206,-9.655167,-12.11004,-9.800415,-10.99318,-14.29056,-12.78169,-12.89334,-13.55099
0,191,-17.12676,-10.85461,-12.64321,-16.84715,-16.12151,-16.69787,-20.30996,-23.44432,-11.38758,-11.0521,-14.74258,-10.10098,-13.1459,-10.25757,-12.17879,-16.16706,-14.41923,-14.29798,-14.98355
0,192,-16.55979,-10.52034,-12.97228,-16.9137,-15.59738,-16.45846,-19.96654,-23.28125,-11.52172,-11.979,-15.15684,-9.347844,-12.51277,-9.897367,-11.31388,-16.42135,-15.68778,-14.00563,-15.26741
0,193,-15.5292,-9.434175,-12.32744,-16.3466,-14.75488,-15.66045,-18.37878,-21.84636,-10.96008,-10.99514,-14.3023,-9.615843,-12.29529,-8.701241,-10.87189,-16.57401,-15.5656,-13.84378,-15.11267
0,194,-8.072065,-1.484098,-7.959515,-7.61542,-6.839144,-7.970304,-10.77683,-14.20861,-4.664048,-7.853539,-5.999821,-3.987844,-9.951917,-2.916965,-4.822639,-12.25604,-12.10924,-8.26705,-10.30732
0,195,-5.846463,0.535145,-6.705097,-5.716034,-4.66469,-4.887684,-8.394928,-12.04603,-2.687325,-8.682055,-2.58189,-2.037747,-10.26644,-0.3604215,-3.599921,-12.46156,-12.33257,-7.480175,-9.963387
0,196,-8.123629,-0.08729326,-9.222529,-6.768079,-6.58797,-6.529283,-10.90027,-14.40927,-5.464741,-11.75518,-4.894027,-5.801014,-13.42632,-1.705475,-6.273203,-14.36295,-14.78773,-9.680339,-12.22143
0,197,-5.412544,2.856913,-6.857472,-3.971094,-3.610652,-5.184058,-8.679363,-11.18833,-3.766915,-11.28889,-2.027862,-4.273873,-11.9787,-0.5183888,-3.172625,-12.32216,-13.77956,-7.002468,-10.15428
0,198,-0.06462403,8.202029,-5.021051,0.8654109,1.338584,0.6313657,-2.506884,-5.816894,0.8025722,-9.1224,3.629827,0.8614556,-8.225481,3.485878,0.2322922,-9.638079,-10.74635,-3.560961,-6.729728
0,199,3.426443,12.24602,-4.710913,5.070864,4.70636,6.272788,2.390209,-1.439966,3.446553,-7.836071,7.873979,1.845607,-8.775105,5.045732,1.358405,-9.334351,-9.71711,-2.557241,-5.607819
0,200,-2.674795,6.310758,-11.37926,-1.211338,-1.413685,1.036123,-3.214021,-6.527511,-2.70685,-13.55269,1.685177,-5.103469,-16.0834,-3.058307,-4.663152,-17.11909,-17.74982,-9.57924,-12.95968
0,201,-10.84413,-1.153503,-19.65592,-8.852749,-9.598957,-6.791454,-11.42444,-14.1779,-9.229073,-18.99673,-6.163928,-11.22644,-20.96479,-9.08221,-13.12069,-24.29492,-24.99697,-17.45279,-20.41896
0,202,-21.6542,-12.27636,-29.19586,-19.6253,-21.05182,-18.42191,-21.09999,-24.47279,-17.91985,-21.31466,-17.71491,-20.23135,-22.59316,-18.57332,-24.27673,-30.96625,-29.85946,-26.79858,-27.67793
0,203,-23.33099,-13.88358,-29.84752,-21.32403,-22.88896,-20.30741,-22.82614,-25.96406,-19.10836,-20.52119,-19.07016,-21.93239,-20.90544,-19.85588,-25.22717,-30.37587,-28.10927,-27.13947,-27.22327
0,204,-26.88399,-17.09598,-31.88304,-25.44099,-26.79656,-23.68477,-26.02083,-30.12792,-21.3733,-21.13634,-22.91792,-23.42335,-22.58548,-23.63303,-28.79383,-32.6008,-29.18088,-30.10684,-29.4308
0,205,-20.14727,-9.367519,-25.1526,-17.95419,-19.74225,-17.78555,-19.39799,-23.55027,-16.49924,-16.48393,-16.88191,-19.70883,-19.29149,-18.49804,-22.13259,-25.64614,-22.52897,-23.18056,-22.67947
0,206,-13.53083,-4.605222,-19.30111,-12.07889,-13.28987,-10.98726,-12.23893,-17.40797,-11.1758,-11.94526,-10.74603,-14.75403,-15.1816,-11.78065,-16.02271,-20.98852,-17.90708,-17.81428,-17.74109
0,207,-14.44048,-4.454226,-21.20622,-13.46495,-14.40682,-12.4803,-12.92649,-18.42533,-12.52528,-13.65512,-11.52415,-16.28455,-15.43153,-13.55064,-17.37817,-22.6277,-19.23481,-19.14461,-18.96819
0,208,-25.41133,-15.05087,-32.22439,-24.26778,-25.56497,-21.8381,-23.63771,-28.5795,-22.70983,-22.62195,-21.84274,-27.16391,-23.18081,-24.17661,-28.21586,-32.57598,-28.5079,-29.69193,-28.92294
0,209,-27.69048,-17.45342,-33.26241,-25.4602,-28.02422,-23.07582,-25.89571,-29.94915,-24.15892,-20.52384,-25.84267,-27.62533,-19.66624,-25.30342,-30.40384,-29.29704,-25.24345,-29.48051,-27.27929
0,210,-20.47605,-10.47808,-26.50777,-18.98216,-21.04728,-18.02693,-18.63052,-23.70787,-17.69822,-14.63781,-19.17382,-20.03064,-12.49122,-19.53017,-23.60172,-21.96205,-17.67321,-22.19192,-19.83626
0,211,-22.25388,-12.81979,-27.95495,-21.18092,-22.83624,-20.22308,-20.75942,-25.40289,-19.60482,-15.71513,-20.79827,-22.35937,-11.48385,-20.72166,-24.19366,-23.16499,-18.90898,-23.29985,-21.03027
0,212,-22.23609,-13.70083,-25.80292,-21.29447,-22.91083,-20.08155,-21.28422,-24.83855,-18.52028,-14.40059,-19.73491,-20.64656,-8.598578,-19.48747,-23.45885,-20.63384,-15.82213,-21.75021,-18.93578
0,213,-21.75486,-14.26651,-23.96001,-20.07963,-22.29443,-20.63104,-20.93561,-25.52959,-18.54815,-13.54325,-19.94004,-20.39887,-8.172821,-18.70854,-23.09052,-17.58566,-12.67828,-20.07957,-16.75296
0,214,-21.31163,-12.96431,-21.78231,-19.69806,-21.98173,-18.78096,-20.80392,-24.35754,-17.94249,-13.066,-19.32427,-19.55532,-6.595533,-18.46369,-22.32642,-15.03897,-9.835217,-18.42485,-14.63019
0,215,-25.53091,-16.86547,-23.49589,-24.12797,-26.42694,-21.63934,-25.35583,-27.80593,-21.54853,-16.05392,-24.27824,-22.03301,-8.634719,-21.36094,-26.35484,-16.1461,-11.2222,-21.1067,-16.75502
0,216,-20.18943,-13.63211,-18.20403,-18.70294,-20.7299,-17.22756,-20.22026,-24.65937,-18.00634,-13.82974,-20.2069,-18.08954,-8.342735,-16.81507,-20.72373,-11.90088,-7.886395,-16.18692,-12.72933
0,217,-14.44677,-8.535401,-13.78415,-13.96446,-14.906,-11.70297,-14.79908,-19.99729,-13.55908,-11.95527,-15.58458,-12.44269,-6.370966,-11.78793,-14.66207,-9.028844,-6.404205,-11.62835,-9.503774
0,218,-20.48176,-14.6331,-19.42799,-20.6486,-20.92102,-19.13121,-20.96772,-24.76097,-18.72402,-16.15197,-21.35894,-17.90211,-12.01938,-16.87832,-19.97482,-16.20823,-13.95526,-18.0161,-16.35187
0,219,-18.51181,-12.48173,-16.27613,-18.74397,-18.63622,-17.17095,-19.35405,-23.7085,-16.54787,-14.3003,-18.41673,-16.5604,-9.932375,-16.06334,-16.88224,-15.50181,-13.37763,-16.2175,-15.10372
0,220,-16.42748,-10.98372,-12.16927,-16.48491,-16.45189,-15.23951,-17.58072,-22.44256,-13.70547,-9.717579,-17.47425,-12.67723,-4.856395,-13.53624,-14.008,-11.34703,-9.927029,-12.98814,-11.71004
0,221,-16.13551,-11.10034,-10.89567,-16.42055,-16.1826,-15.78789,-17.01447,-22.36869,-13.62185,-8.941495,-16.87186,-13.36898,-5.13397,-14.39567,-13.62331,-11.27212,-9.315845,-12.7929,-11.39833
0,222,-2.877568,1.838894,0.09970426,-3.085277,-2.65723,-2.629663,-4.107301,-8.974165,-2.913054,-2.975093,-3.807753,-2.12676,2.206279,-2.633497,-1.388724,-0.7487229,-0.5918571,-0.9786713,-0.8180299
0,223,0.839847,5.14903,1.880253,0.4064011,1.044695,1.407345,-0.2215126,-6.122898,-0.5785497,-2.765565,0.236059,-0.3291107,2.517273,1.412987,1.718729,0.88126,1.390249,1.610047,1.345399
0,224,-9.941403,-5.827365,-5.132914,-10.75994,-9.773437,-10.14616,-10.84679,-17.45216,-10.77214,-10.72284,-10.24316,-11.59301,-6.488574,-9.422366,-8.481834,-8.603709,-7.631382,-8.472479,-8.34423
0,225,-16.11441,-11.92691,-8.606187,-16.53334,-16.01151,-14.7869,-17.05958,-23.13751,-14.66537,-11.32028,-16.44912,-15.30192,-7.699596,-14.65734,-13.59432,-11.65678,-10.04194,-12.98391,-11.96235
0,226,-11.4313,-7.061858,-4.584894,-11.76382,-11.1819,-10.05896,-12.98864,-18.42188,-10.48888,-7.421798,-12.08803,-10.98515,-3.888811,-9.81751,-7.779796,-6.375612,-4.638952,-7.477248,-6.681472
0,227,-6.71252,-2.311739,0.9996904,-7.749846,-6.686631,-6.231101,-8.354434,-12.50049,-5.921146,-3.181293,-7.737752,-5.543927,1.939612,-5.526927,-3.363905,-1.120883,-0.1025013,-2.567238,-1.748532
0,228,-4.255947,-0.6226186,3.812899,-4.82549,-3.806552,-4.417482,-6.444448,-10.82432,-3.455083,-2.062612,-5.015889,-2.449179,3.744615,-3.682312,-0.5605318,0.635,0.3168276,-0.2752275,-0.1561224
0,229,-15.27251,-11.68105,-5.719188,-15.26812,-14.65897,-14.98645,-18.03862,-22.74682,-13.36742,-10.00866,-15.56984,-12.67668,-3.530325,-13.30951,-10.01875,-7.628045,-7.182807,-9.434538,-8.781797
0,230,-11.97724,-8.009492,0.2573856,-12.25435,-11.16763,-11.95375,-15.30044,-20.09285,-9.055037,-6.228748,-11.54733,-8.172749,-0.5962979,-8.356236,-6.19724,-4.560662,-4.318326,-5.98929,-5.680718
0,231,-1.734607,1.516773,8.809238,-2.182103,-0.7827942,-1.750534,-4.653518,-9.186927,-0.06855815,1.544249,-2.768799,1.03105,5.502881,0.8548177,3.279191,2.496832,0.8893218,2.300544,1.480363
0,232,14.11649,16.44101,21.7577,13.38076,15.31774,13.95035,11.59508,6.614801,14.02785,10.73517,13.56921,15.06557,12.73079,15.3551,17.37449,12.20154,9.249817,14.668,12.18861
0,233,7.690398,10.61278,14.1315,7.627261,9.446363,6.483968,4.56567,0.01300721,6.747939,0.6342117,7.832309,7.555936,2.686365,8.212476,10.75007,3.50895,-1.121852,7.268841,3.648773
0,234,6.879672,11.53456,12.96941,7.401546,8.912494,7.605106,3.679533,-0.2655704,6.146138,-1.154229,6.947591,6.682302,0.2506066,7.471698,9.549586,1.056418,-4.807561,5.494357,1.241805
0,235,-1.206702,3.773512,4.721003,-0.3119551,0.599667,1.633017,-3.576568,-7.213137,-1.066082,-7.871519,-0.4504048,-1.136,-5.85915,-0.7479172,0.1697788,-7.23525,-12.93897,-3.363755,-7.072726
0,236,-3.417957,2.226897,1.829544,-1.538846,-1.314507,-0.379457,-5.545373,-8.233557,-3.052961,-10.09678,-0.8758932,-4.998967,-8.233853,-4.222709,-2.445465,-10.85716,-16.55142,-6.41604,-10.20574
0,237,-3.347782,1.994462,1.946652,-0.9730266,-1.078614,0.1779349,-5.367191,-8.793047,-2.435627,-7.110437,-1.165622,-5.270488,-6.098299,-3.551611,-1.410341,-10.38969,-15.71101,-6.009905,-9.680583
0,238,-23.36043,-16.76449,-14.84078,-20.23939,-21.34094,-18.41313,-25.25553,-27.82426,-18.2842,-16.29434,-20.35568,-21.92009,-14.43712,-20.6068,-19.95605,-25.0747,-28.51842,-23.28238,-24.96339
0,239,-17.09595,-9.411807,-7.283436,-14.3571,-15.14229,-12.1077,-19.43555,-20.90641,-11.3441,-8.783849,-13.87028,-14.79589,-6.573683,-14.09249,-12.77163,-17.7157,-20.70636,-16.05731,-17.54193
0,240,-0.870818,5.449007,6.797301,-0.3647721,0.8533333,3.699111,-3.062573,-4.757732,1.762118,-0.8549087,1.426065,-0.6311237,0.4132511,-1.155978,2.933279,-6.792408,-10.85489,-2.341773,-5.602103
0,241,0.9818905,6.75982,5.632211,1.616979,2.979074,4.80087,-1.212021,-4.062287,1.602401,-6.383688,4.614575,-1.011158,-4.944929,0.03571982,3.061604,-9.304523,-14.04631,-2.922085,-7.344646
0,242,-3.359185,0.7595686,-0.03488375,-2.900746,-1.641781,1.811984,-4.728095,-8.057568,-3.610973,-11.59977,-0.2881145,-6.520172,-9.690073,-4.473156,-2.246232,-14.29583,-19.12982,-8.154202,-12.47058
0,243,-7.400649,-2.350919,-4.517565,-7.158783,-5.786423,-1.444572,-8.630313,-11.79915,-7.007838,-14.10936,-4.234434,-10.3771,-14.39425,-8.284066,-5.776431,-18.68829,-22.46571,-12.1827,-16.36264
0,244,-20.00144,-13.6325,-15.61732,-18.45489,-18.30611,-13.57397,-21.07949,-23.46456,-17.5519,-19.72745,-16.43172,-22.41176,-20.77502,-20.53124,-17.3295,-27.68573,-30.22141,-22.88637,-25.74651
0,245,-18.39972,-12.89562,-13.41074,-17.03533,-16.61079,-11.60841,-20.05017,-22.42335,-14.57772,-16.48848,-13.71862,-19.24003,-17.61229,-16.94109,-14.3125,-25.76855,-27.41448,-20.59174,-23.49365
0,246,-3.779791,1.323346,-1.11849,-3.595616,-2.008061,1.528635,-5.869414,-8.499382,-1.704226,-5.895188,0.8398283,-6.158219,-7.491252,-3.660014,1.308453,-13.60751,-14.6179,-6.487267,-10.26677
0,247,-2.099035,2.004528,-2.558633,-2.479722,-0.3976517,1.808388,-3.752073,-6.763381,-2.694695,-9.130662,1.408435,-7.143028,-12.19502,-3.972331,1.996612,-14.76026,-16.39353,-6.436436,-11.04316
0,248,-1.824483,2.663808,-2.47502,-1.653426,-0.2706581,5.436719,-2.864639,-6.488293,-3.06865,-9.791237,0.9147383,-7.735863,-14.47679,-4.846909,1.42772,-13.77762,-14.83081,-6.217416,-10.35517
0,249,-1.673072,2.905629,-3.082187,-1.853414,-0.2068806,5.65477,-2.218079,-6.812301,-4.222688,-11.02344,0.134316,-9.594069,-15.59507,-4.957915,0.9620353,-15.08349,-16.59548,-7.096145,-11.54749
0,250,2.62183,7.241896,-1.116234,2.690922,4.561371,9.662323,1.791672,-3.250839,-0.01144128,-8.899728,4.722424,-5.31483,-13.20653,-0.6291828,5.333559,-14.80823,-17.9672,-4.701173,-10.58096
0,251,-1.590722,4.073543,-5.978739,-0.9907063,0.4818215,6.215205,-2.266363,-5.22542,-3.176381,-12.24125,2.098261,-9.595716,-16.98544,-5.205043,0.8313975,-20.41333,-23.74706,-9.721203,-15.72553
0,252,-15.34544,-8.55263,-17.91727,-14.10206,-13.53131,-6.709294,-15.27484,-18.77238,-14.63459,-19.46798,-11.20745,-21.83689,-25.2184,-19.29201,-13.00289,-31.29185,-32.88793,-22.34509,-26.76997
0,253,-26.01897,-18.80237,-26.02114,-25.07742,-24.70228,-17.93907,-25.62423,-29.16825,-23.41165,-23.33578,-22.63652,-30.22381,-29.53079,-29.38744,-22.94624,-37.35011,-37.19509,-30.69547,-33.43348
0,254,-9.301196,-3.04145,-9.56864,-7.935765,-7.791429,-1.196655,-9.187591,-12.43469,-7.456798,-8.945378,-5.444226,-14.31508,-16.59445,-12.67164,-6.217497,-20.69587,-20.01334,-13.84961,-16.71829
0,255,-3.304883,2.144041,-6.385527,-2.13444,-1.443511,3.515596,-3.545999,-7.86674,-4.952824,-11.07997,-0.360963,-11.51363,-19.05858,-8.447819,-0.8328818,-18.17154,-19.11242,-9.476978,-13.93558
0,256,-6.026666,-0.5345954,-8.527786,-5.698445,-4.409721,0.9008163,-6.32424,-9.442447,-8.433275,-15.12438,-3.433319,-14.92722,-19.90303,-10.53625,-3.811519,-20.81036,-22.85629,-12.29446,-16.94695
0,257,-7.619965,-2.557138,-9.384596,-8.205439,-6.371821,-0.3974976,-7.467535,-10.24694,-10.77405,-17.17346,-5.487107,-17.55737,-20.50681,-12.48388,-5.83471,-22.36446,-24.60949,-14.13841,-18.65616
0,258,-11.51722,-6.100881,-14.30301,-12.46317,-10.78078,-4.173085,-9.787218,-14.79086,-14.58408,-19.45267,-9.624657,-22.1856,-26.36609,-17.86732,-11.44097,-27.3642,-27.46213,-19.30887,-22.92328
0,259,1.691684,6.677045,-1.801691,2.444098,3.058334,9.128725,2.875791,-1.477752,-1.958119,-8.815668,3.455822,-8.851899,-15.18141,-5.695229,1.30969,-14.14877,-16.13506,-6.190269,-10.37304
0,260,1.767733,6.765511,0.2900576,3.445756,3.38625,9.541212,2.482228,-0.2364933,-0.7854318,-5.846745,3.819864,-7.846567,-11.54795,-5.432385,2.335656,-11.42044,-13.84472,-4.584718,-8.371078
0,261,-1.520674,5.557955,-2.459806,0.01719539,0.06808896,6.744239,-1.174986,-2.729614,-3.760189,-9.097161,0.9886425,-11.17539,-13.30645,-7.71523,-0.7859743,-14.36458,-16.93202,-7.541237,-11.29798
0,262,-15.13038,-7.703826,-14.76344,-13.40088,-13.76046,-7.285038,-14.6874,-16.30608,-16.51955,-20.78308,-12.10698,-23.60116,-24.5943,-21.57346,-14.74013,-25.36887,-27.02067,-19.97075,-22.71853
0,263,-12.29337,-6.238559,-11.84802,-10.48869,-11.06858,-3.889484,-11.61391,-14.31761,-13.36145,-16.79994,-9.82936,-19.5318,-20.56817,-19.26319,-11.84557,-21.24621,-22.36351,-16.58855,-18.85869
0,264,-16.26876,-11.04141,-13.69476,-15.17649,-15.00775,-9.623521,-16.12576,-19.92905,-18.05474,-20.6416,-15.36958,-23.19427,-24.28626,-23.97558,-14.55834,-23.57347,-25.31033,-19.28526,-21.76443
0,265,-21.44763,-15.61998,-16.65449,-20.45186,-20.46561,-13.56813,-21.44908,-24.18303,-21.16176,-20.75244,-19.95212,-26.43654,-22.604,-27.37524,-18.6702,-25.45266,-26.03988,-22.61775,-23.98735
0,266,-5.91529,-2.405292,-2.970422,-5.411251,-4.892287,0.4486394,-5.850231,-8.937783,-6.939317,-9.264076,-4.612908,-11.02783,-10.3838,-13.26262,-3.888902,-12.44358,-14.08037,-8.495838,-10.72044
0,267,4.767762,8.817919,5.810223,4.969116,6.280572,10.95096,4.273892,0.8473489,1.765434,-5.824607,5.539208,-1.653231,-7.785113,-2.741309,6.082012,-6.869924,-11.04338,-0.3054519,-4.671161
0,268,5.158715,8.882466,4.450852,5.6685,6.841633,12.17159,4.597359,0.9136876,1.47626,-9.350864,7.08047,-2.023297,-11.45026,-2.574955,5.684912,-8.662164,-12.93789,-1.091194,-6.014609
0,269,2.589972,7.115143,1.038604,3.11668,4.182966,9.787941,2.260493,-1.001315,-2.179036,-12.02541,3.749896,-6.718694,-13.52636,-5.603063,3.17487,-10.92389,-15.21968,-3.548845,-8.349641
0,270,-0.6464514,3.503252,-2.892362,0.07092351,0.9139337,5.604412,-1.187104,-4.123547,-4.584347,-13.41517,1.318208,-9.025143,-13.92545,-8.57661,0.5918557,-12.97648,-16.37359,-5.923913,-10.25237
0,271,-1.69175,2.61305,-2.77905,0.3427851,0.1698017,4.896828,-2.877639,-4.228475,-4.69593,-13.14069,0.6247547,-8.55989,-11.64194,-8.655183,-0.2952335,-11.24094,-15.63601,-5.576306,-9.544328
0,272,-7.012175,-4.099261,-9.063811,-5.610716,-5.479484,-0.6785443,-7.893064,-9.625725,-10.20038,-17.76999,-5.555072,-13.23812,-16.15098,-14.66552,-5.393131,-15.93176,-19.88684,-10.59227,-14.29027
0,273,-15.30922,-12.81664,-15.21549,-15.253,-14.41884,-8.960155,-15.83529,-18.78525,-17.37123,-21.34289,-15.13828,-19.67423,-19.69167,-21.29512,-12.89124,-21.39936,-23.84091,-17.42787,-20.0639
0,274,-2.641358,0.152883,-3.636676,-2.455966,-1.740669,3.728855,-2.715961,-6.527623,-5.345686,-12.37128,-1.351661,-7.819972,-10.2467,-9.035954,-2.286047,-11.45293,-13.98932,-6.683489,-9.590809
0,275,4.435238,6.573272,2.059028,4.755437,5.688195,9.748466,3.946301,0.2788784,0.1607623,-9.735491,5.771606,-2.39808,-9.428435,-1.5605,4.529341,-6.619864,-9.914816,-0.5919704,-4.544081
0,276,4.377767,7.060453,1.435419,5.49127,6.089522,10.27221,3.501687,0.8631108,-0.1477412,-11.7469,6.175551,-3.050186,-11.26901,-2.127987,4.430788,-8.213791,-13.06085,-1.371789,-6.160473
0,277,1.10896,4.092946,-2.525229,1.662851,2.611666,7.036088,0.8155865,-1.944346,-3.484745,-15.18628,3.295549,-7.208914,-14.72094,-5.01217,0.3686721,-13.39841,-18.09227,-5.931028,-10.83248
0,278,3.213993,6.203979,-1.740459,3.653335,4.755841,9.612337,3.067153,-0.1516917,-1.361095,-12.08082,4.954745,-5.590143,-12.24015,-3.08247,3.23406,-12.435,-16.90492,-4.207927,-9.382689
0,279,1.964578,5.743487,-2.93813,2.595351,3.490611,9.518608,1.790637,-1.329312,-1.827618,-11.4637,4.555874,-6.929092,-10.87482,-4.269927,2.754928,-13.15749,-16.6224,-4.947542,-9.740111
0,280,7.264293,11.67939,1.517333,9.117336,9.064713,13.99925,6.910279,4.24328,3.993473,-5.400609,10.74346,-1.415678,-2.346136,1.163001,7.645345,-7.258922,-11.12934,0.5262054,-3.99488
0,281,11.16609,14.44878,2.071293,11.565,12.72446,17.63312,10.50982,7.826385,5.200231,-9.625511,14.42668,1.322572,-5.910705,3.540484,11.01002,-6.296272,-10.43176,3.207237,-2.405976
0,282,8.121447,11.29458,-1.54677,8.52282,9.751103,14.6884,7.745499,4.403366,1.233811,-13.90742,10.73284,-3.015459,-10.85552,-0.6921747,7.685228,-10.53558,-15.27032,-0.5794545,-6.585806
0,283,1.876068,5.569485,-7.500134,3.041741,3.488887,9.428244,2.015701,-0.3954718,-3.834186,-17.44436,5.303782,-9.047775,-13.65678,-6.895235,0.7754509,-16.32759,-21.14096,-7.051263,-12.51992
0,284,4.32169,8.022434,-6.016626,6.391662,6.128806,12.17027,4.934009,2.002836,-0.9823654,-12.86561,7.412517,-7.037904,-9.323176,-4.487062,2.960969,-14.48322,-19.6936,-5.228905,-10.65886
0,285,2.825554,7.174517,-7.787591,4.189263,4.392249,10.18056,3.973501,0.3639101,-2.090083,-13.58477,6.658427,-8.906612,-11.37877,-6.589899,1.181324,-17.53717,-21.48432,-7.554731,-12.81979
0,286,4.189339,8.205132,-8.965544,5.520344,5.693293,12.56463,5.592741,1.77416,-0.999327,-13.86558,8.327483,-7.712702,-12.28045,-5.748569,2.207095,-17.95841,-21.45861,-7.133663,-12.64809
0,287,5.017067,8.455449,-9.317515,6.814903,6.432485,13.01479,7.206846,2.967892,-0.9639664,-13.88111,8.75822,-7.95841,-12.73623,-5.976854,1.407728,-17.64277,-21.38566,-7.241099,-12.51472
0,288,5.585234,10.06392,-8.993379,7.465522,6.707044,13.67709,8.451138,5.076012,0.381555,-10.56614,9.647521,-7.68184,-9.706694,-4.045751,1.108605,-16.66824,-19.5078,-6.920976,-11.42164
0,289,4.444175,9.16468,-11.84508,7.003986,5.879135,13.51372,7.195076,5.190015,-1.374504,-12.83678,8.449568,-10.40842,-12.8495,-5.252941,0.2508433,-19.16722,-22.8744,-8.670229,-13.82346
0,290,5.231686,9.880492,-12.15581,8.021695,6.609496,13.88575,8.475793,5.652706,0.5983946,-11.05691,10.2443,-8.323526,-11.29422,-3.651073,-0.1394392,-19.84382,-23.10636,-9.051873,-14.02098
0,291,8.063506,13.20988,-12.73181,10.75132,9.271145,15.33985,11.63837,7.927322,1.770487,-12.21036,12.96665,-6.867098,-11.49616,-1.37156,1.025313,-18.64094,-21.66471,-7.377528,-12.4155
0,292,-10.97792,-4.769688,-30.09691,-8.661907,-10.42893,-1.105609,-6.415008,-11.07191,-14.83489,-23.69161,-6.070711,-24.39024,-23.68754,-19.68132,-17.44213,-34.69868,-35.01159,-25.10841,-28.36108
0,293,-19.76558,-12.4835,-35.87702,-16.23362,-19.53263,-6.346124,-14.55602,-17.6053,-19.36302,-23.22749,-13.39127,-29.59688,-22.95469,-26.59694,-26.22999,-38.97554,-37.46952,-32.10925,-33.23471
0,294,-16.45028,-9.982159,-32.39231,-11.8465,-15.78646,-3.218911,-11.75473,-14.35319,-15.83098,-19.04958,-10.51439,-25.81685,-20.33257,-22.86793,-22.06919,-34.47398,-33.49832,-27.9495,-29.24761
0,295,-20.81236,-13.3515,-35.76379,-16.14575,-20.30024,-7.965764,-16.27662,-17.80092,-18.60684,-20.32825,-14.83083,-27.74148,-21.10392,-26.55961,-26.31408,-36.80362,-35.63605,-31.28275,-31.93178
0,296,-15.91332,-7.840082,-31.46211,-10.76853,-15.28155,-3.493705,-11.26617,-12.33807,-14.05139,-16.50324,-9.244295,-23.93941,-17.02881,-21.80021,-22.17725,-32.68763,-31.6429,-26.97589,-27.66309
0,297,-11.66236,-5.273519,-28.37704,-7.144804,-11.2041,0.9937415,-6.603791,-8.264388,-11.11391,-14.58391,-6.33967,-20.23034,-14.74496,-18.11476,-18.59192,-29.79063,-29.71741,-23.73983,-24.92541
0,298,-11.10626,-6.520364,-26.98508,-7.558539,-11.06069,0.7981398,-5.802275,-7.995713,-10.84057,-13.49753,-6.203655,-19.35822,-13.23634,-17.44099,-17.91583,-27.89844,-26.94219,-22.53847,-23.21582
0,299,-9.346045,-4.670292,-24.9075,-6.323284,-9.541062,2.702613,-4.002708,-6.648918,-9.5308,-12.82865,-5.157435,-17.04257,-13.01555,-16.38168,-16.433,-25.4295,-24.10194,-20.43442,-20.89766
0,300,-4.787045,1.118376,-21.36442,-1.035235,-4.494613,8.533032,-0.2716927,-1.447346,-5.028384,-12.18425,0.9615272,-12.60964,-12.59058,-11.18757,-11.9597,-22.9508,-22.47346,-16.63391,-18.06278
0,301,-7.12988,-0.9848865,-24.10524,-3.432233,-6.929839,5.229659,-1.768293,-5.129243,-8.259159,-14.54992,-3.255359,-15.72575,-16.34562,-14.51827,-15.67849,-26.30637,-26.53489,-20.12608,-21.60737
0,302,-17.30355,-10.95572,-30.54706,-14.05801,-17.7337,-4.656115,-11.01748,-14.57047,-15.98352,-16.46301,-14.07311,-23.63406,-20.80169,-24.24157,-25.581,-32.29142,-30.30109,-28.507,-28.07626
0,303,-8.2657,-1.852859,-20.05501,-4.37638,-8.587921,4.67292,-2.041534,-4.279932,-6.345688,-6.156071,-3.444031,-15.18335,-10.48774,-15.77643,-16.25683,-21.99789,-19.06038,-18.72902,-17.72594
0,304,8.829378,15.07606,-5.368447,12.93103,9.044897,22.00587,14.50242,12.83406,8.15323,2.632832,13.45129,-0.521592,-2.66685,1.565199,-0.1575816,-9.434762,-8.780023,-3.935242,-4.899349
0,305,2.544721,8.072461,-14.44332,5.302468,2.286317,15.51615,9.375516,5.67895,-0.450789,-9.024657,6.680242,-9.063767,-13.99859,-6.844633,-8.735983,-19.77233,-19.33709,-12.9757,-14.49724
0,306,-0.3996691,4.96717,-15.69396,3.32865,-0.3908721,12.17654,6.53246,2.958207,-2.684679,-9.554963,3.788399,-11.85158,-13.56721,-9.705409,-11.91951,-21.63962,-22.30017,-15.7005,-17.02198
0,307,-8.532467,-1.81442,-20.99717,-5.234069,-8.890623,4.197311,-1.700099,-5.217422,-8.76672,-11.94975,-4.767369,-17.57411,-15.83491,-15.55961,-19.14721,-26.07574,-25.39726,-21.81558,-21.91819
0,308,-5.778741,0.6783753,-16.59141,-2.677556,-6.169137,6.461436,0.4867199,-2.803146,-5.128263,-7.464992,-1.055501,-13.66554,-11.13125,-13.28603,-14.90212,-21.09765,-18.94474,-17.29458,-16.82541
0,309,0.8715861,7.237426,-8.937151,3.378462,0.20191,13.68039,7.430622,4.514294,0.8115346,-4.245622,5.604491,-6.560588,-7.267008,-8.11974,-9.958649,-14.91506,-13.38449,-11.37199,-10.9186
0,310,1.474628,6.783582,-7.850709,4.001031,1.131903,13.6559,7.414757,4.503902,0.5165357,-6.51667,5.71855,-6.057722,-7.782129,-6.854309,-9.30751,-15.06987,-15.70172,-11.10019,-11.62719
0,311,-1.133028,5.673323,-10.23477,1.485531,-1.351808,11.59122,4.311435,2.288146,-1.908901,-9.846255,4.0084,-8.882231,-9.706255,-9.348979,-11.45776,-17.74829,-18.4994,-13.43264,-14.12363
0,312,-1.028492,5.671418,-10.15923,1.163526,-1.527397,11.59166,4.845538,2.04085,-1.647368,-8.507714,3.44008,-8.200305,-9.56461,-10.05862,-11.47831,-17.14265,-17.02995,-13.17016,-13.4138
0,313,-9.256558,-3.339449,-15.06051,-5.147346,-9.005743,4.51698,-4.006367,-5.651269,-8.277265,-13.04043,-4.385433,-15.68062,-14.66322,-16.65179,-18.58163,-23.19313,-24.81004,-20.24958,-20.6416
0,314,-5.487036,0.2517603,-12.15451,-1.787922,-5.225203,7.939626,-0.2058621,-1.797841,-5.247585,-10.79064,-0.1022447,-13.49338,-13.09937,-13.24066,-14.55235,-21.02013,-22.15032,-17.0809,-17.83944
0,315,-16.25457,-11.41831,-21.35915,-12.91479,-16.35146,-3.543343,-10.2442,-12.08844,-14.46185,-16.19024,-10.56685,-23.37971,-21.30612,-24.33943,-24.8681,-30.05309,-29.19389,-27.05354,-26.70993
0,316,-15.13289,-9.842136,-18.67996,-11.41823,-15.26701,-2.54262,-9.486895,-11.50691,-11.6606,-9.939851,-10.16059,-19.75455,-15.72528,-23.12507,-22.1425,-25.14358,-23.08288,-23.5629,-22.22532
0,317,-13.33185,-8.920855,-15.2726,-10.89826,-13.65834,-1.749109,-8.388475,-10.32906,-10.47866,-9.356284,-9.308439,-17.16988,-13.87334,-19.98334,-19.40581,-22.03229,-20.30534,-20.67384,-19.56954
0,318,-6.868587,-2.321326,-9.189419,-5.565632,-7.3386,4.699448,-2.842605,-4.383536,-4.677344,-6.120069,-3.689071,-9.083325,-7.212851,-12.85332,-12.36014,-15.46981,-14.825,-13.71731,-13.23344
0,319,-12.29084,-8.48751,-13.98987,-10.68602,-12.6734,-1.811831,-8.361253,-9.793584,-10.10475,-11.53987,-9.165199,-14.07044,-12.31248,-18.39716,-18.09458,-20.05384,-20.04465,-18.85653,-18.31315
0,320,-11.66284,-8.216166,-10.53134,-9.395192,-11.75743,-0.2550744,-8.098185,-8.551318,-8.090912,-8.92645,-8.354966,-11.66616,-9.377959,-16.54878,-17.23278,-18.20762,-19.55677,-17.72482,-17.27157
0,321,-5.603399,-2.272055,-5.273526,-3.687531,-5.607318,4.867295,-2.236631,-2.92034,-3.546288,-6.519696,-3.145391,-6.658143,-5.754365,-9.47881,-11.96063,-13.80118,-16.70904,-12.67851,-13.06305
0,322,-10.08338,-6.581529,-8.739237,-7.320624,-9.735672,-0.04337037,-7.076326,-7.004717,-7.515813,-9.909706,-7.265959,-10.80875,-10.40705,-15.30745,-15.78087,-17.317,-20.58414,-16.43022,-16.833
0,323,-8.070755,-4.113924,-5.447887,-5.830013,-7.683796,2.579668,-5.986911,-6.363008,-5.563703,-8.922293,-5.505324,-7.616573,-6.797153,-13.67735,-12.33896,-13.97803,-17.47655,-13.08343,-13.6775
0,324,-8.269578,-6.992193,-5.786609,-6.892229,-7.855942,0.3376974,-6.410355,-6.652848,-6.958455,-11.34585,-6.595951,-8.058328,-9.032071,-13.8836,-12.2783,-15.18705,-20.08845,-13.70901,-15.16577
0,325,-14.49134,-14.0518,-11.76339,-13.18654,-13.95557,-7.351275,-12.88324,-12.77295,-12.45413,-15.23291,-13.37842,-13.16455,-13.52554,-19.07528,-17.64051,-21.07283,-26.61819,-19.57675,-21.27189
0,326,2.085768,1.942691,3.793883,3.015677,2.752118,9.300281,3.378106,3.435348,2.714444,-3.339077,2.24718,3.557316,-0.2298904,-3.610842,-1.598587,-6.515038,-13.9206,-4.05204,-6.812758
0,327,9.621385,9.858475,9.120293,9.749948,10.36107,16.98024,10.74876,10.67124,7.924093,-2.898154,9.514771,9.113968,-1.87097,2.816805,5.174586,-2.9225,-10.93295,1.617948,-2.49266
0,328,-2.785908,-1.41218,-3.79625,-1.709206,-2.002903,4.587008,-1.263648,-1.527119,-3.370815,-13.2631,-1.493796,-3.251345,-14.87713,-9.974061,-7.787008,-14.9191,-21.30633,-10.73636,-14.09062
0,329,-12.38269,-10.85707,-12.27843,-11.4689,-11.8887,-4.359374,-10.51249,-11.40337,-10.92489,-15.63951,-11.66057,-11.21724,-17.74778,-19.13465,-15.71583,-21.81283,-26.51125,-18.71835,-20.95686
0,330,-10.55633,-9.239482,-10.01399,-9.629329,-10.11707,-3.28253,-8.995764,-9.523848,-8.641707,-11.81112,-10.20989,-8.585205,-14.22259,-16.18415,-13.06631,-17.97564,-21.99209,-15.60546,-17.39267
0,331,-10.38312,-10.36782,-12.00497,-10.94914,-10.54084,-4.63686,-8.200342,-9.540702,-9.695374,-12.94839,-11.2833,-8.720991,-15.8662,-16.53933,-13.48237,-18.57022,-21.71425,-15.98387,-17.63006
0,332,-4.673442,-6.305795,-6.64846,-6.307619,-5.315799,0.5786968,-1.835392,-4.197608,-4.911936,-8.623162,-5.825923,-3.657345,-10.63343,-10.70116,-8.769793,-13.30097,-15.72365,-10.88718,-12.23271
0,333,-8.929021,-9.975183,-11.44911,-9.445138,-9.364642,-2.13823,-6.224005,-8.439677,-8.616023,-12.55828,-8.974092,-7.969875,-14.95845,-15.0962,-12.90376,-16.80902,-18.46703,-14.68038,-15.67267
0,334,-10.91157,-11.36482,-14.40819,-11.47203,-11.52973,-3.475365,-7.964786,-9.700309,-9.584982,-12.21799,-11.03117,-8.742532,-14.61746,-17.17905,-14.68865,-18.55856,-19.68448,-16.55388,-17.18819
0,335,4.846336,3.51881,-2.142225,4.100018,4.41573,11.54532,7.713494,5.998691,5.016625,-0.0006505046,4.535932,6.230356,-2.080765,-1.831481,0.8640628,-6.335411,-8.368106,-2.494053,-4.260945
0,336,9.688993,8.657936,-1.172278,9.160851,9.615885,17.40006,12.79167,11.31393,7.694007,-1.731067,9.128059,8.375006,-4.023363,2.169069,4.189903,-7.165876,-11.57304,-0.9075922,-4.486345
0,337,-4.668599,-5.021768,-15.82256,-4.940018,-5.074799,4.285284,-0.7791212,-2.205842,-5.570444,-12.73144,-4.978823,-5.721768,-15.39729,-11.35137,-10.85611,-20.47512,-23.78675,-15.20811,-17.82208
0,338,-15.81642,-15.23623,-25.25058,-14.76165,-16.32042,-5.419371,-11.53612,-13.18716,-13.93542,-16.21842,-15.32951,-15.00364,-19.08459,-21.87407,-21.39133,-27.41056,-28.68101,-24.34164,-25.12616
0,339,-14.77607,-13.6276,-24.92707,-13.5728,-15.43894,-3.738817,-10.21941,-12.13483,-11.58327,-13.04856,-13.02366,-13.18983,-17.42779,-20.05323,-20.32397,-26.27824,-25.44894,-23.19979,-23.2996
0,340,-17.66883,-16.40969,-28.25233,-17.28381,-18.69385,-7.445884,-13.09274,-14.85995,-14.93713,-16.04503,-16.52884,-15.96709,-18.24187,-22.68382,-23.25228,-28.2629,-27.27719,-25.62493,-25.42255
0,341,-14.80897,-13.10326,-25.8784,-14.72805,-15.96413,-4.295887,-10.75101,-11.42569,-12.42162,-14.64002,-14.42155,-11.84554,-14.72908,-20.29488,-20.1511,-24.16981,-23.82044,-21.93255,-21.7548
0,342,-13.7385,-12.73287,-26.14003,-13.31302,-14.70202,-3.965135,-9.802132,-10.05604,-11.92911,-15.45414,-13.11671,-11.4151,-17.09692,-18.77298,-19.41838,-24.16686,-24.05453,-21.41656,-21.66183
0,343,-3.601447,-3.423428,-19.08985,-4.976531,-5.20132,5.97671,1.336727,-0.1981707,-2.979986,-9.990178,-2.452295,-1.903198,-12.73368,-9.317412,-11.30961,-18.41506,-16.98661,-13.95616,-14.53561
0,344,16.00949,14.65365,-4.319321,13.18876,14.37092,25.60742,21.15344,19.30665,12.43045,-0.8856632,16.31604,13.82723,-2.974387,8.134216,7.097927,-5.283079,-5.482715,2.312636,-0.3627975
0,345,14.61186,14.16504,-6.802269,12.96771,13.57881,24.42936,19.68701,19.41392,10.58586,-4.426898,16.51516,9.860823,-8.606572,5.704701,5.380235,-9.676001,-10.78535,-0.5969724,-4.19617
0,346,0.8077007,1.362918,-21.16958,0.1861373,-0.2059556,10.45028,6.198698,6.358729,-2.176429,-14.14593,3.060783,-4.122988,-18.91445,-7.917311,-8.252687,-21.68445,-21.85954,-13.59623,-16.2996
0,347,-9.39633,-8.597422,-31.06816,-9.399899,-10.58837,1.383949,-3.287755,-4.455872,-10.56927,-17.04157,-7.798286,-13.6238,-22.72797,-17.36218,-17.52091,-29.43234,-27.92592,-22.66373,-24.10909
0,348,1.146997,1.907289,-21.33961,1.441574,-0.1077619,12.38191,7.373739,7.459266,-0.3885267,-7.536537,2.697377,-3.151508,-11.74574,-7.420425,-7.691162,-18.67271,-17.65127,-12.26922,-13.59015
0,349,-4.460439,-2.799433,-24.12013,-4.707716,-6.18533,7.709249,2.192641,2.509397,-4.684227,-11.23934,-1.826962,-7.524783,-13.75647,-11.82435,-14.38772,-22.68214,-20.81838,-17.5434,-17.84677
0,350,-16.44977,-14.19014,-33.8667,-15.92296,-18.45069,-3.383227,-9.508183,-9.791512,-14.40683,-16.03677,-13.31906,-17.96275,-16.78518,-22.35165,-25.71892,-29.6825,-25.79055,-27.11254,-25.45031
0,351,-17.84953,-16.01972,-33.26474,-17.43456,-20.37269,-5.353695,-10.41714,-11.20459,-15.61831,-13.47499,-17.28503,-17.76534,-13.00217,-23.29133,-27.64083,-26.16088,-22.13677,-26.55848,-23.42437
0,352,-9.314586,-9.106866,-25.21826,-10.03787,-11.75382,2.314189,-2.725073,-3.915416,-8.552258,-8.863868,-10.48106,-8.414692,-6.867086,-15.05599,-18.13264,-18.64815,-16.46234,-18.04298,-16.17652
0,353,-1.334406,-1.429173,-16.77407,-1.63089,-3.357299,9.166769,4.553925,3.049612,-1.401002,-4.232667,-2.147262,-0.5919719,-1.083139,-8.020851,-10.18914,-11.16871,-10.18981,-10.10532,-8.904326
0,354,10.2943,9.460489,-6.289454,9.639263,8.541607,20.61373,15.84147,14.85375,8.350546,0.4715866,10.67475,8.979464,4.442276,2.79348,0.6373802,-3.362578,-3.649472,-0.3651275,-0.5448339
0,355,13.59532,12.89328,-5.285377,12.44415,11.90748,23.65922,19.06238,19.31824,10.03261,-0.09103239,14.35172,9.694395,3.931422,5.857195,3.85286,-3.015909,-3.825316,1.599218,0.4669764
0,356,-1.002346,-1.561956,-16.90602,-1.353359,-2.691364,9.597339,5.126879,3.249859,-2.210692,-5.167156,-1.343171,-3.858845,-4.971592,-8.467339,-9.154784,-14.04226,-13.01009,-11.1614,-10.9079
0,357,-5.33234,-6.677579,-18.57936,-6.264344,-7.538374,5.007699,1.371909,-0.7779011,-5.270138,-6.00677,-5.828724,-6.179971,-5.533741,-12.29665,-14.13157,-15.7214,-13.78335,-14.60318,-13.15631
0,358,-9.188456,-9.643169,-20.39671,-10.75293,-11.82689,2.091896,-2.450771,-4.281347,-8.896648,-9.955832,-9.583456,-8.933066,-7.380734,-16.91413,-18.46631,-17.35061,-14.94366,-17.46117,-15.22528
0,359,-10.18507,-11.15293,-18.56187,-10.25609,-12.36415,1.31639,-4.613508,-4.487505,-9.043447,-8.620066,-10.8008,-8.455732,-5.097214,-16.39086,-18.04735,-13.52557,-12.05825,-15.63934,-12.96808
0,360,-12.71505,-13.89361,-19.10223,-12.63018,-15.05282,-2.166106,-6.829008,-8.45987,-10.54323,-7.685369,-13.98826,-9.315272,-5.22167,-18.5819,-20.82142,-13.62386,-11.26676,-17.17818,-13.54779
0,361,-4.838532,-6.104622,-11.02339,-5.490907,-7.138299,6.079821,0.6649154,-0.7809746,-3.602,-3.10155,-5.986262,-2.325397,-1.913167,-9.857957,-12.72157,-7.329322,-4.975063,-9.815751,-6.912338
0,362,-9.50071,-11.74217,-14.87771,-10.86302,-11.78315,1.011314,-4.511798,-5.694862,-8.892446,-9.099003,-11.24828,-6.974464,-6.95049,-13.81763,-16.60672,-11.84667,-10.43365,-14.11358,-11.76768
0,363,-10.24891,-13.24941,-15.31056,-12.14132,-12.60034,-1.342584,-5.178859,-7.087525,-10.91174,-8.674182,-14.56974,-8.907867,-7.707484,-14.79916,-16.47461,-11.52947,-10.59707,-14.1859,-11.94999
0,364,-6.014923,-9.012143,-11.36349,-7.229884,-8.083887,2.695769,-1.167801,-2.921718,-6.233089,-5.394498,-9.490424,-3.998109,-4.811504,-10.10099,-12.75416,-8.131267,-7.64452,-10.459,-8.504257
0,365,2.734367,-0.1949447,-1.859882,1.018869,0.7094391,11.89492,7.526403,6.763946,1.807705,-1.35712,-0.4192307,5.087236,-1.439349,-2.858793,-5.376658,-1.780693,-2.806567,-3.198417,-2.131593
0,366,-3.887055,-7.893702,-9.389069,-6.639796,-6.149554,4.699366,1.515007,-0.4845032,-5.911314,-8.895332,-8.52697,-2.437497,-8.809309,-10.09995,-12.43621,-10.29387,-12.22934,-11.0796,-10.54804
0,367,-0.5536575,-4.363281,-4.914458,-2.819724,-2.667486,8.548494,4.504498,2.996824,-1.867445,-5.205679,-4.023552,1.386325,-4.054511,-6.032179,-8.948025,-6.139387,-7.904243,-7.2396,-6.5067
0,368,4.495795,2.365306,-0.05104546,2.551432,2.600981,15.11363,9.248162,9.011998,4.250698,-0.2976787,2.276369,6.967994,-1.007713,0.1722805,-3.731828,-2.692207,-4.209727,-2.796715,-2.459494
0,369,8.673358,7.570989,3.047512,7.423332,7.084453,20.27134,13.80651,13.36766,7.789841,1.493078,6.976208,9.283557,-1.122732,3.387309,-0.6587419,-1.486415,-3.585969,-0.4481243,-0.7553737
0,370,10.9219,10.58928,5.656652,10.94257,9.707219,23.57292,15.9004,16.35415,11.1467,4.838119,11.29357,11.19977,1.459494,5.552601,1.801659,0.688072,-0.7589488,1.876139,1.759971
0,371,9.619818,8.631748,3.310207,8.972245,8.25979,22.10877,14.59511,14.86098,8.960381,1.604379,9.087021,9.631466,-0.3618375,5.849829,0.05326533,-1.594509,-3.988627,-0.09865609,-0.7037208
0,372,4.283746,4.358722,-3.393663,4.234939,3.283091,16.01455,8.833555,9.338682,3.591566,-3.520223,3.795788,3.779651,-6.322666,-0.2525916,-4.363623,-7.531354,-10.17077,-5.301094,-6.323783
0,373,6.606769,6.51927,-0.2582255,6.322916,5.188433,18.03191,12.09942,12.29393,6.184001,1.233321,5.443074,6.241246,-3.817991,1.154032,-2.973745,-3.992783,-5.422097,-2.863597,-2.912368
0,374,6.174783,6.24788,0.5244643,6.077605,4.585506,18.89698,12.12515,12.38987,6.540102,2.78636,4.444775,6.840714,-2.426437,1.544465,-4.178646,-3.413414,-5.074365,-3.288898,-2.858473
0,375,5.597533,5.904351,-0.6686139,5.452149,4.08575,18.42501,11.47312,12.34574,6.040385,1.88777,4.533649,5.733886,-1.652766,1.443692,-4.668194,-5.201197,-7.383757,-4.448062,-4.371668
0,376,11.9083,12.88324,4.422915,11.67989,10.40403,25.38941,18.03402,18.85203,12.42344,7.768908,11.11614,11.59584,5.934499,8.451101,1.122315,-0.9945356,-3.759533,0.576036,0.2670138
0,377,3.243944,2.995244,-3.74532,2.260503,1.469429,16.54018,9.339154,10.31272,3.372228,-1.88618,3.227417,2.562416,-2.250248,-0.5296634,-7.327112,-8.983992,-11.08735,-7.62117,-7.688903
0,378,-3.851468,-5.312582,-10.62922,-4.103489,-5.792791,7.78935,2.479377,2.996587,-3.70123,-5.722973,-4.656204,-4.559155,-6.398786,-6.643555,-14.44985,-12.00554,-12.89834,-12.85977,-11.59626
0,379,-7.938396,-8.182978,-13.08592,-7.731524,-9.598694,3.267138,-2.084086,-1.57847,-6.735492,-5.619538,-9.146365,-8.518447,-8.152265,-9.465668,-16.71871,-14.42584,-14.8227,-15.56057,-14.1106
0,380,-7.598319,-7.785797,-11.51914,-7.623053,-9.414749,4.581709,-2.166294,-1.877754,-5.843811,-3.04458,-8.939529,-7.396274,-3.256986,-8.60653,-14.85738,-11.30523,-10.74547,-13.34116,-11.23879
0,381,7.868412,7.411726,1.940245,6.676133,5.845855,20.16846,12.73082,13.97674,8.256679,6.672966,7.277468,7.795133,7.956477,7.07839,0.4929088,2.344488,3.282528,1.60144,3.065414
0,382,17.47219,16.67924,8.512669,16.09025,15.58863,29.8323,22.35738,23.92457,16.12323,9.465037,17.30521,16.32114,9.328567,14.98921,8.675657,7.831492,7.904371,8.979329,9.235143
0,383,19.54061,18.03971,9.198778,19.00734,18.06632,31.48503,24.74814,26.36156,16.82142,8.77485,18.10317,16.86898,7.099998,17.12065,9.24632,7.377516,4.891545,9.12363,8.306599
0,384,16.75081,15.67198,4.948787,15.77906,15.11706,29.82102,22.35101,23.57474,13.32189,3.818846,15.11845,13.34995,2.522284,13.51913,5.707173,2.648226,-0.1239411,5.125213,3.952539
0,385,13.61671,12.924,1.775367,12.59687,11.83648,27.89793,19.90137,22.18366,10.12273,0.617976,12.29949,9.236666,-1.172546,9.126659,1.665,-1.631787,-4.685325,0.9721714,-0.1786449
0,386,12.20033,11.498,-1.417691,12.25827,10.82448,26.11865,18.52281,20.74575,9.011531,0.7151905,11.13169,7.074435,-2.14649,7.020839,0.8476856,-4.008175,-7.215138,-0.7913532,-2.205338
0,387,10.26349,9.733654,-5.874424,9.231455,8.484653,23.96478,17.27355,18.7452,6.790331,-0.835709,9.000854,4.088697,-5.38522,5.723567,-1.176916,-8.169169,-9.868067,-3.867661,-5.293424
0,388,9.743402,8.998023,-7.184888,10.06608,8.40694,23.60699,16.80498,18.16725,5.346773,-3.894964,9.694592,1.104901,-8.239612,5.362646,-2.699919,-9.831966,-12.10505,-5.281647,-7.007378
0,389,-7.059903,-7.448854,-22.9534,-6.426939,-8.854883,7.233448,1.035978,1.206113,-10.8808,-17.08905,-6.453011,-16.56478,-20.62501,-11.88548,-20.42126,-23.96329,-24.20838,-21.29782,-21.32453
0,390,-6.303795,-5.720703,-21.83702,-6.968085,-8.767338,9.097088,2.122226,3.309389,-8.083274,-12.11688,-4.253058,-14.24656,-16.61171,-10.54834,-18.60501,-22.25256,-19.18625,-19.65125,-18.53982
0,391,-9.479606,-8.524973,-26.76931,-10.03526,-12.01439,7.104618,-0.5948286,-0.667942,-12.36414,-16.85047,-8.128013,-19.05464,-21.89641,-14.15954,-22.35681,-26.44163,-23.12026,-23.5617,-22.52324
0,392,-7.608044,-6.21773,-26.31624,-7.615061,-10.03811,8.434127,1.608339,1.480338,-10.71504,-14.37085,-6.793683,-17.83397,-20.83336,-13.17783,-20.81113,-25.15506,-21.91292,-22.1436,-21.10954
0,393,-10.60334,-9.066849,-30.76298,-10.97779,-13.49647,5.529567,-0.04675784,-0.9535234,-13.84917,-16.70293,-10.11899,-21.39646,-25.18348,-17.75608,-25.52584,-29.42198,-25.1622,-26.50021,-24.90217
0,394,-14.64083,-12.56302,-32.26261,-14.23769,-17.06326,3.29279,-4.579498,-3.77044,-17.01314,-18.85108,-12.98314,-26.25583,-27.9003,-22.51697,-27.91177,-32.96826,-29.20576,-29.82155,-28.51505
0,395,-8.270066,-6.787124,-23.96431,-7.214431,-10.26624,9.939962,1.588213,2.496703,-10.45181,-12.16312,-6.622554,-20.17178,-22.4614,-15.80164,-21.28721,-26.92478,-24.28022,-23.64693,-22.83067
0,396,4.101079,7.242967,-13.09182,4.948009,1.933977,22.30847,13.96332,15.02782,1.059891,-3.027308,6.122005,-8.365027,-12.66975,-3.813966,-10.02565,-15.40582,-12.14312,-11.79122,-10.88757
0,397,16.96167,19.72009,-3.45371,17.77663,15.21143,34.13656,26.44615,27.56209,11.1163,1.026803,19.54996,1.918152,-7.308268,6.757131,1.697632,-7.345523,-6.059528,-1.322286,-2.179513
0,398,22.48133,24.62446,0.5465117,23.62182,20.939,38.9423,32.17342,33.399,14.8021,2.281943,24.09193,6.040312,-7.310477,10.64578,5.835542,-3.875501,-4.285462,2.752886,1.059294
0,399,18.41339,20.07275,-3.538709,19.12016,16.58461,34.33473,28.49072,28.06116,10.57849,-1.940547,20.4593,1.964186,-9.023609,5.766347,1.180974,-7.631531,-7.357587,-1.365347,-2.549412
0,400,12.92918,13.20712,-8.517481,13.42873,11.00527,28.71214,23.04732,21.43634,5.447374,-6.093214,14.61794,-2.573098,-12.62811,0.5555304,-3.862082,-12.11813,-11.59289,-6.311385,-7.257668
0,401,15.52273,17.25872,-2.859422,15.8976,13.45597,31.02701,26.08899,25.91125,8.582781,-1.193766,17.0467,-0.2184514,-9.538355,2.140188,-1.858317,-8.52647,-8.075505,-3.544458,-3.985427
0,402,14.38889,17.60937,-1.328372,15.55532,12.28941,29.95218,25.01832,25.97758,8.567988,0.02977332,16.56333,-0.4076969,-6.079031,1.056082,-3.905438,-6.952277,-6.867691,-3.74372,-3.232724
0,403,-6.939233,-3.424917,-19.58927,-4.978581,-9.158047,9.489536,4.123574,4.576351,-10.63085,-13.31547,-5.614864,-20.22809,-18.90388,-19.56711,-24.43227,-23.81425,-23.36514,-23.07035,-21.14771
0,404,-11.9886,-8.233768,-20.47268,-10.1012,-14.60966,4.34323,-0.8790202,-0.9493966,-11.85633,-7.82165,-10.52119,-21.05424,-12.65019,-23.0664,-27.58133,-23.05788,-20.1567,-24.89297,-20.87512
0,405,-0.5122052,2.634878,-9.438138,2.482931,-2.376484,16.30116,9.303188,11.00853,-1.463199,0.421932,1.316291,-11.01343,-3.94802,-11.13505,-14.60348,-11.81761,-10.42047,-12.84056,-9.947495
0,406,9.232137,11.46764,-1.635653,9.828491,6.787263,25.10036,19.20417,20.57876,5.089819,2.807683,9.881631,-3.089887,-1.882295,-3.740705,-5.549231,-4.636092,-2.992105,-4.243083,-2.126618
0,407,4.918613,6.781314,-3.860728,5.844835,2.450624,20.53185,15.27602,15.66993,1.456118,0.3748142,5.083518,-6.259429,-6.981354,-8.822934,-10.447,-7.610051,-5.712719,-8.214423,-5.576526
0,408,-0.9107408,2.882206,-6.614393,0.6758302,-3.208024,14.04098,8.515198,9.731419,-2.329086,-0.7048865,-0.2556947,-9.992042,-7.720768,-12.41999,-14.78167,-9.31497,-6.649698,-11.42211,-7.894293
0,409,3.286551,6.446498,-1.154576,4.323389,0.8911309,18.15596,12.36639,14.16121,1.891735,3.81233,3.232186,-4.75785,-2.435978,-8.541516,-9.806483,-3.849199,-1.558156,-6.332407,-2.818824
0,410,5.154048,7.027903,0.3693736,5.320145,2.563944,19.22362,14.49841,15.80184,2.592094,3.029709,5.059947,-4.007524,-2.521859,-6.368249,-8.710026,-3.460023,-1.447481,-5.445154,-2.292669
0,411,4.963507,7.327717,1.298035,4.649009,2.192009,19.06431,14.2819,15.19,2.754477,4.250273,4.049514,-3.334799,-1.137827,-5.669232,-8.667674,-2.616946,-0.4795476,-5.094408,-1.691743
0,412,8.229039,10.52919,4.246249,7.099253,5.401002,21.10174,17.44264,16.82723,5.023792,5.809409,7.188066,-1.09622,1.258973,-3.42143,-4.959543,-0.404065,2.103719,-2.045162,1.046357
0,413,5.726672,7.355031,1.95914,5.407546,3.386363,17.58609,13.81216,14.10321,2.808971,2.229762,5.554804,-2.618246,0.1544306,-4.737186,-6.67095,-2.019242,-0.8117396,-3.692459,-1.078903
0,414,3.191461,3.43825,0.554787,3.896552,0.9979312,15.48169,11.46746,13.12871,0.7135224,1.946384,1.925509,-4.125279,0.3880621,-8.22091,-9.461127,-2.427885,-2.968488,-5.601563,-2.73892
0,415,4.09654,4.180039,1.865241,4.771345,2.125078,16.18427,12.50866,13.07499,1.066707,1.885166,2.077577,-4.006131,-1.045166,-7.360686,-8.817167,-3.342656,-4.978291,-5.768858,-3.6354
0,416,-10.26137,-9.952968,-10.72548,-11.69329,-12.90602,2.339168,-1.979297,-1.814517,-11.39593,-9.019496,-11.92146,-15.42532,-10.86951,-20.32534,-21.70043,-16.50836,-16.38892,-19.00951,-16.30265
0,417,-7.674849,-6.112021,-8.55654,-9.357605,-10.95006,4.69577,1.399174,2.087742,-6.861796,-0.599395,-9.302448,-11.11228,-3.201097,-15.97699,-19.54048,-11.71032,-9.096596,-15.62158,-11.26703
0,418,-0.2328075,0.361873,-1.363743,-1.436723,-3.29689,12.18648,8.630764,9.259592,0.8805597,7.36964,-1.910037,-3.201655,5.135666,-7.338494,-11.7873,-4.228443,-2.033878,-8.129562,-3.961643
0,419,8.585091,10.15136,6.200521,7.844679,6.286069,20.26548,16.35028,17.948,7.710386,9.141907,7.13125,3.714673,5.688407,0.5417108,-2.91436,1.02404,0.9047527,-0.6452665,1.562865
0,420,-6.45916,-4.787793,-7.568151,-6.843873,-8.847626,4.387185,1.403325,1.958001,-7.095372,-3.76236,-9.092484,-10.42451,-4.351387,-13.65183,-18.50767,-11.40908,-12.55582,-14.79596,-11.98536
0,421,-3.435935,-1.50544,-3.789513,-3.276079,-5.772277,7.554567,4.212032,4.496756,-2.214156,4.395123,-5.45369,-6.279052,3.413051,-8.228984,-14.07789,-6.195718,-5.602673,-10.30293,-6.651188
0,422,5.839906,8.644547,4.101086,6.123666,3.770034,16.74577,12.70193,14.4863,6.003748,9.798615,5.264231,1.069069,9.175468,1.588765,-4.281372,1.778767,2.695625,-1.127252,1.91741
0,423,14.93668,17.8602,11.25562,14.6746,12.8175,26.90435,21.01802,24.72783,12.51742,10.81419,14.50532,8.620198,11.61745,9.985543,4.391876,9.956447,10.26057,7.815918,10.06406
0,424,9.593606,11.1988,4.332319,8.348317,7.269625,20.64142,16.33079,19.09273,5.212683,1.85927,8.244466,1.205066,0.03366469,3.656861,-2.002937,1.841551,1.928513,0.7540546,2.326269
0,425,-5.670332,-4.00618,-9.696176,-6.197409,-8.074261,5.377663,1.594971,3.401077,-8.871893,-7.95557,-7.321607,-13.83237,-10.60619,-11.95658,-16.79053,-10.63694,-9.437531,-13.25341,-10.52764
0,426,-4.031179,-3.427233,-7.305172,-4.684273,-6.668773,7.652931,3.019162,3.396269,-6.697248,-4.734134,-5.706046,-10.79179,-4.933537,-9.147984,-14.43763,-6.165353,-3.682745,-9.993152,-6.400634
0,427,-2.240306,-1.94851,-6.657835,-3.152243,-4.978565,8.272549,4.706574,4.830676,-5.072423,-3.353546,-3.798853,-8.779355,-4.849461,-7.275468,-12.44261,-4.254004,-0.6544493,-7.90773,-4.14939
0,428,-2.242976,-1.802402,-4.952723,-3.369358,-5.094609,7.698647,4.544817,6.682261,-3.557676,0.7763772,-3.254885,-7.701649,-0.1674633,-6.254673,-11.43768,-2.514706,1.466617,-6.816748,-2.546211
0,429,2.130917,3.371076,-0.3443731,1.387235,-0.4084757,13.41936,8.571031,11.77211,1.524927,4.959026,2.165276,-3.318556,4.308355,-0.9266645,-6.690987,0.3619107,3.658392,-3.046829,0.6290774
0,430,-0.2603734,1.230203,-5.834036,-0.157613,-2.360747,11.19117,6.599635,8.339084,-1.203705,0.5977355,0.02205103,-6.755609,-2.757773,-4.259945,-9.962084,-6.289106,-3.697955,-7.843691,-5.179914
0,431,-10.27315,-8.096583,-16.28202,-11.15322,-12.88429,1.227979,-2.622109,-2.131983,-11.09454,-7.006182,-10.75355,-17.0789,-9.911823,-15.00504,-19.99679,-16.25648,-12.58699,-17.98919,-14.73955
0,432,0.9461882,1.483076,-7.353405,-0.5491915,-2.034556,13.18979,9.250906,8.768261,-0.09490507,3.459803,0.973792,-6.030137,0.5468375,-4.140162,-9.162885,-6.429089,-1.119486,-7.601872,-4.092359
0,433,4.666293,4.910332,-5.340629,3.472719,1.930947,16.81009,12.74392,14.40855,2.31283,2.111288,4.552659,-2.77258,0.01923077,-1.341501,-6.792928,-4.989363,-2.281791,-5.367597,-2.990595
0,434,-7.646892,-6.977503,-18.0269,-9.375708,-10.50878,3.094594,0.7098064,2.007442,-9.918576,-9.727511,-7.690709,-15.03203,-10.05731,-15.07518,-19.38715,-18.30633,-16.21075,-18.30424,-16.05449
0,435,-13.0624,-12.85868,-20.8835,-14.81449,-16.49197,-1.475903,-4.079319,-3.584597,-12.5044,-7.034861,-12.4896,-17.93016,-6.413921,-18.39737,-24.26345,-19.17531,-14.26957,-21.61849,-17.22885
0,436,-7.958218,-7.335747,-15.88042,-10.15994,-11.85295,4.851294,1.083265,3.038395,-7.306999,-1.560815,-7.859315,-12.05579,-1.067345,-11.8321,-19.41877,-12.01104,-6.00425,-15.5541,-10.39232
0,437,-5.451443,-5.83847,-15.35352,-7.476863,-9.137046,5.677438,3.522181,3.666419,-5.708153,-0.6015451,-5.96902,-9.896757,-0.8510091,-10.78936,-16.71201,-10.65106,-4.741946,-13.44239,-8.726581
0,438,-5.258669,-5.518148,-15.62108,-6.864892,-8.678205,5.484179,3.326524,3.495102,-5.919482,-2.809666,-4.773133,-10.38108,-3.556998,-10.17213,-16.72484,-11.32305,-5.425262,-13.55116,-9.2026
0,439,-8.570419,-8.936936,-19.63124,-10.95062,-12.3942,1.57627,0.01549521,0.3871131,-10.17357,-8.408953,-8.598129,-13.50734,-7.918359,-13.11163,-20.84669,-13.78881,-7.652045,-16.58072,-11.94732
0,440,-17.80435,-17.73604,-24.90514,-19.27909,-21.55672,-6.975567,-9.27609,-8.38662,-17.35051,-11.56799,-18.33729,-20.79544,-11.54389,-20.7472,-29.51079,-18.86732,-12.86614,-23.88884,-18.23346
0,441,-15.13918,-16.33464,-19.22634,-16.08021,-18.77241,-4.391838,-6.548293,-4.850219,-12.82959,-4.679654,-15.17372,-16.26057,-7.011504,-18.1209,-26.29198,-14.26615,-7.929204,-20.27803,-14.07649
0,442,-6.250292,-6.809057,-7.713882,-8.406973,-10.23964,3.447278,2.538825,3.940932,-3.78551,5.458495,-6.825579,-7.103456,2.595577,-8.580179,-17.52968,-4.774827,2.150898,-11.14009,-4.586349
0,443,6.498068,5.436937,2.999818,3.363488,2.526239,14.12509,15.19689,15.32984,4.81461,9.456606,4.299066,2.177865,8.815568,2.631219,-6.261106,4.886162,9.758697,-0.1599211,5.038494
0,444,7.508135,6.165471,4.691857,4.452556,3.921914,14.99683,15.2397,14.31696,4.017393,4.58452,5.765375,2.058339,6.297462,2.251604,-5.003939,5.452361,9.185186,1.050357,5.39126
0,445,5.934802,5.022361,3.901321,3.129375,2.697069,13.1191,12.57249,12.38932,2.816331,2.358195,3.809916,2.225307,3.797167,1.323284,-5.459632,4.785491,7.485342,0.4891573,4.281864
0,446,15.57884,14.16354,13.37239,12.71083,12.55246,23.42391,22.16344,21.86484,9.89629,5.601881,12.64231,9.434023,8.394959,10.42164,2.799409,12.12934,12.46373,8.565461,11.19147
0,447,10.9139,9.8253,9.158502,7.86538,7.913898,19.16355,17.41832,17.3172,4.253237,-1.621359,7.51116,3.943537,1.640906,5.772394,-2.492439,6.913638,6.102769,3.439353,5.622366
0,448,8.09119,7.903167,8.938169,4.981565,4.82272,16.41878,14.35738,15.70478,3.989582,2.142328,5.34338,3.640376,6.107121,4.030142,-3.808401,8.13808,9.002901,3.040485,6.595842
0,449,13.94811,13.3556,14.59153,10.34764,10.52245,21.34637,20.57753,20.73228,9.0963,7.082631,10.87783,8.538492,11.9405,10.54412,1.283417,13.12555,14.01465,8.168263,11.69944
0,450,17.98273,17.472,18.47348,14.20472,14.93135,25.66113,23.80445,24.19423,12.70586,8.897007,14.76119,12.55499,14.39927,14.61078,6.444133,15.54313,15.06361,11.91933,14.28585
0,451,18.54299,18.04188,17.96538,14.5554,15.53714,26.27628,24.67771,25.0609,13.38739,8.457707,15.71242,13.17824,11.87091,13.9394,6.57745,13.52097,12.93063,11.0946,12.92926
0,452,14.09091,13.17493,12.85977,9.933197,11.19745,19.95834,20.75686,19.70764,7.656302,3.47514,10.73318,5.979924,5.852979,8.785043,1.787429,6.99691,5.998513,5.398239,6.759044
0,453,8.214997,7.812682,9.374696,5.047104,5.73885,16.20266,14.1634,13.79182,3.935818,2.473285,4.948784,2.142491,4.466854,3.062048,-1.703996,3.554754,2.354924,1.377151,2.891017
0,454,13.17993,13.6803,14.70027,10.29455,10.78927,22.16754,18.98309,20.53832,10.63524,8.637807,11.22574,8.971587,10.30243,8.890655,3.061423,7.772893,6.349799,5.919038,7.346995
0,455,13.97161,13.74061,15.17206,10.79329,11.73754,22.83093,19.76426,21.5988,10.53517,6.426565,11.90366,8.907995,7.764155,9.820054,3.255131,6.109698,3.185044,5.291624,5.725866
0,456,21.36048,21.20445,22.72047,18.71754,19.39418,29.19867,27.66142,29.50262,16.84648,13.4557,18.41275,14.28015,13.93696,14.01087,10.11294,12.21959,7.889436,11.7195,11.73776
0,457,21.19015,20.7739,21.60975,19.14594,19.17369,29.14219,27.99656,28.47597,17.06909,13.72202,18.49334,14.65101,12.42551,13.86765,8.891962,12.05833,8.748413,11.17486,11.70485
0,458,7.03021,7.109389,9.135663,5.897865,5.30706,15.16361,13.29169,14.04444,4.696807,3.951565,4.381827,2.240349,3.574439,1.331411,-4.016308,0.3697449,-3.443413,-1.494553,-0.6424973
0,459,12.03198,12.14955,15.27936,10.74245,10.34886,20.21732,18.08468,18.96539,10.34083,9.271475,9.448516,8.620334,7.764509,6.057817,1.226822,5.481928,1.674899,3.701811,4.474329
0,460,14.86037,14.78549,17.2953,13.45026,13.08617,22.98678,21.44384,21.46309,12.35094,9.671713,13.10454,9.800977,5.38679,8.444514,2.909267,6.54597,3.986218,5.387529,6.178538
0,461,15.92615,16.24581,17.34282,14.29928,14.09806,22.3371,22.14649,22.083,12.36185,7.675214,14.65729,10.22895,4.169571,9.379946,3.526769,7.71202,5.652341,6.668035,7.491911
0,462,8.024275,7.253775,10.5361,5.208246,5.466032,14.31958,14.66076,14.0505,5.452063,4.83075,5.186504,4.40569,2.192914,2.615024,-3.521888,3.45073,2.895992,0.6070419,2.727313
0,463,13.41626,13.00667,15.76424,10.64012,10.81863,19.06206,19.52541,18.54968,10.11069,8.494177,10.65907,9.783359,9.009845,7.690249,2.025817,10.53098,10.22638,7.099539,9.546315
0,464,21.1146,21.67408,21.21032,18.86579,18.94895,26.79267,25.82222,25.74475,16.62265,9.70523,19.54938,17.49288,13.54267,15.51449,9.836739,17.26661,15.93432,14.88799,16.40038
0,465,24.57591,24.80315,22.45034,21.76896,22.14468,30.41263,29.48853,31.11749,18.55992,8.645368,22.63303,20.23145,12.13413,18.5995,11.84452,19.2496,17.30515,17.26014,18.36532
0,466,25.94645,24.50259,22.45945,23.02496,23.23836,32.20123,31.23985,32.2471,18.98492,7.961734,24.13955,20.94778,12.53732,20.22352,12.26981,20.93937,19.69256,18.45822,19.9443
0,467,24.68011,20.8757,19.68596,21.83765,21.89502,30.8857,30.25711,29.58694,17.99665,9.035986,23.7139,19.05017,15.38184,18.53499,12.27388,20.15863,20.63665,17.72971,19.73572
0,468,27.87693,23.73892,22.66905,24.36942,25.11277,33.05914,32.7611,31.7561,20.44482,11.62841,25.86112,22.36043,20.52044,21.58591,16.94667,24.05302,23.96436,21.87236,23.49782
0,469,22.15927,18.63914,17.97082,18.89778,19.51993,26.64247,26.50046,27.28878,15.6427,7.667933,20.10446,17.93761,16.09393,17.13874,11.81448,19.77211,19.12919,17.08429,18.74357
0,470,15.49139,12.82444,14.18477,12.4576,12.72002,19.71272,19.97038,21.64168,11.44678,6.85267,14.00089,13.64635,14.59411,10.77715,5.574975,15.75744,15.9013,11.71096,14.41627
0,471,19.35145,17.38753,18.942,16.7904,16.82808,22.54753,23.56772,25.03122,16.73895,12.27704,17.86401,19.85896,19.23734,16.08161,9.046759,19.39714,18.71013,15.32726,17.85673
0,472,17.8266,15.32459,17.13923,15.64145,15.65713,19.9194,21.53668,24.03069,15.28971,10.46549,17.41392,17.56732,16.71194,15.44637,8.299218,17.14758,16.28415,13.7987,15.83979
0,473,18.79425,16.21989,16.58857,15.05304,16.20216,21.64097,22.82388,24.69773,15.96624,10.92602,18.3467,17.96504,15.3968,16.51538,9.977597,16.13383,17.00827,14.11817,15.97571
0,474,19.1856,16.19706,14.96554,14.83658,16.55789,23.02097,23.3728,24.17029,14.96531,7.870107,17.60475,17.53899,12.73429,16.4119,10.00732,13.93747,13.77202,13.10808,14.03987
0,475,17.5606,15.55263,13.04015,14.37982,15.26912,21.43278,21.89926,23.34534,15.07088,8.331023,17.2145,17.12998,11.08771,14.87306,7.823278,11.21698,10.90558,10.70847,11.61991
0,476,9.299182,8.001578,5.880208,6.838858,6.858153,14.15828,14.10327,15.90857,9.292227,4.94667,10.71293,10.3938,7.510565,8.204819,-0.8424188,4.564991,5.847743,2.934628,5.057138
0,477,-1.91293,-2.467765,-4.540216,-3.872246,-4.535212,3.322543,3.203632,4.586572,-0.3855318,-1.501613,0.2056037,-0.2009445,1.116049,-2.458654,-11.61579,-4.061243,-0.9367982,-6.9771,-3.577404
0,478,-11.09356,-11.87483,-10.62102,-13.92211,-14.41182,-6.334974,-5.448748,-4.236804,-7.565888,-2.482959,-10.86486,-6.456965,-0.03447039,-10.88797,-19.80881,-8.167391,-3.618004,-13.6828,-8.543423
0,479,-8.933312,-10.09412,-8.017262,-10.00178,-12.07116,-1.851793,-3.529496,-0.7677547,-3.792312,2.029173,-7.367774,-2.562968,4.564047,-8.673696,-17.40059,-2.762213,2.699458,-9.886551,-3.725998
0,480,-6.012317,-7.792345,-5.177152,-5.992604,-8.809943,0.533173,-0.9689181,1.661156,-0.2994987,3.680443,-2.727754,1.137458,4.989158,-5.146939,-15.04582,0.2550392,6.225053,-6.924152,-0.6782441
0,481,-5.506091,-7.927772,-4.214466,-6.63568,-8.658865,-0.2897703,-0.2867624,0.9878665,-0.9850084,1.90424,-3.020766,1.468659,4.404861,-5.13308,-15.28262,0.7760977,6.735362,-6.579147,-0.2913611
0,482,-2.819683,-4.534487,-1.62237,-4.986891,-6.257434,2.65739,3.031389,2.929586,0.298022,3.297802,-1.71675,2.100538,4.838867,-2.631119,-13.16476,1.815978,7.854131,-4.971005,1.063356
0,483,2.930143,1.078999,2.390458,0.21452,-0.5409723,8.48175,8.934693,7.657248,4.537659,5.451776,2.983978,6.81176,7.081864,3.252481,-8.172614,5.154957,10.37751,-0.6175985,4.632926
0,484,1.376172,-0.4612193,0.9517715,-1.061417,-1.740222,6.820527,7.308976,7.647849,3.003397,2.376556,2.565314,4.200192,2.584674,1.990083,-10.11806,0.9121009,4.858862,-3.634669,0.6749727
0,485,5.994705,4.371613,4.211922,3.26585,2.8419,11.78897,12.16673,12.13207,7.633976,6.044379,7.354696,8.926797,5.326734,5.948145,-5.785063,3.47289,7.605882,-0.07902709,3.877661
0,486,14.95772,13.29777,12.83624,12.54088,11.98533,21.2855,20.84368,20.58541,16.2738,12.92639,16.59423,17.97824,12.4728,14.7437,3.019002,11.86224,15.72825,8.665015,12.31192
0,487,19.21387,17.51037,15.11542,15.98217,16.26912,25.01689,25.12754,23.75431,18.34287,12.06602,21.05513,19.44024,12.90898,17.40322,7.02888,12.75397,16.26563,11.38249,14.05106
0,488,20.12944,18.9849,14.4661,17.458,17.31044,25.05202,25.79626,25.32476,18.40448,11.46457,21.86108,19.23252,13.54774,19.47703,7.444514,13.85966,16.79785,12.30303,14.88201
0,489,26.50803,24.75118,20.33203,23.54347,23.67143,31.99421,31.84176,31.59001,23.35026,14.48123,27.6325,25.04243,17.9496,24.23307,14.05202,20.40219,22.7904,18.97529,21.21243
0,490,26.19607,24.11468,18.89807,22.83589,23.27522,31.86561,31.77303,32.0011,22.19072,11.2627,28.50317,23.0557,14.8836,23.38475,13.06222,17.99242,20.63987,17.50002,19.40015
0,491,25.66786,23.87317,17.77232,22.46829,23.04972,30.21067,31.30976,32.30731,20.18744,7.894714,27.9671,19.86196,11.60265,22.04508,11.86756,14.95094,15.84489,15.50634,16.4412
0,492,27.17049,25.78635,18.85523,25.00006,24.8805,32.65161,32.96674,34.0012,22.06814,9.715484,30.10714,20.68386,11.2797,23.8308,13.07059,15.40357,16.32007,16.33245,17.09842
0,493,23.2665,22.04608,16.43636,21.64927,20.9329,29.2108,29.09777,29.98072,19.36059,8.405402,27.05021,17.95267,11.863,19.25136,9.298168,13.77007,15.27526,13.52242,15.16104
0,494,23.32093,22.17884,16.06275,22.98955,21.34056,30.13743,29.0302,29.22239,19.90729,10.42345,26.52289,18.42186,14.45933,19.09062,9.900668,14.82868,15.75333,14.10326,15.82477
0,495,15.41325,14.7515,10.42146,14.93232,13.30919,21.68665,21.27916,20.70141,13.00345,7.378064,18.33456,10.63319,12.64975,11.45101,3.044028,9.144834,10.70343,7.440472,9.927068
0,496,13.11815,13.67083,9.743711,12.13522,10.8882,19.92653,18.93138,19.56681,11.66188,8.157681,17.05354,7.470302,13.39429,10.73744,1.911344,7.323159,10.04106,5.722506,8.547149
0,497,20.45197,20.24399,15.02154,19.60672,18.31364,25.72573,26.01994,26.51311,17.90028,11.92437,25.0194,14.25477,18.57809,17.34689,8.639303,13.7194,16.33179,12.6261,15.1694
0,498,20.67469,19.37833,16.5125,19.47267,18.4702,24.41282,26.84245,26.41967,17.93218,12.93755,24.61902,14.08725,17.24352,17.13401,8.15798,13.25626,15.66735,12.11399,14.62098
0,499,12.11479,12.25415,10.29292,11.08309,9.885981,17.23833,18.34252,18.07838,10.16923,7.518843,15.80104,5.363923,10.04299,8.690891,0.3948114,6.493151,9.62572,4.598148,7.641165
0,500,15.8553,16.0614,12.04649,16.41103,14.12949,20.91253,21.61622,22.65141,13.35546,9.29807,20.55121,7.921013,12.5313,11.76999,4.092978,10.15456,12.7256,8.420261,11.21333
0,501,18.62019,17.47541,14.65634,18.0236,16.55034,23.08242,24.60481,24.49831,14.97857,9.493754,22.42624,10.66663,14.63507,15.1613,5.974525,12.23533,14.25809,10.53184,13.09941
0,502,15.35124,14.45484,12.57848,15.04976,13.25085,20.15161,21.09085,20.32148,12.03463,7.285908,18.83073,8.291049,12.79028,12.17928,3.02616,11.36218,13.89394,8.575294,11.72534
0,503,13.74686,15.09668,13.14407,14.97763,11.93747,19.07718,18.92442,20.74809,12.30558,11.65158,17.03553,7.681267,16.23587,12.09842,2.789642,14.00895,16.72113,9.407585,13.48837
0,504,11.00145,11.87101,12.14568,12.48438,9.120422,16.07885,16.56754,17.97408,10.46307,11.33905,14.318,5.835377,15.75518,9.753427,-0.5421014,12.40264,15.10894,6.831423,11.45092
0,505,8.564811,8.516902,10.84039,10.38739,6.564283,13.87533,14.73155,15.84033,8.699103,11.17238,12.88949,2.979802,16.678,7.429513,-3.516638,10.80446,14.14659,4.405019,9.75085
0,506,3.30595,3.6402,7.541821,4.529482,1.090749,7.622329,9.273599,10.43214,4.705171,10.28399,7.603806,-1.191068,17.06055,3.480496,-7.464813,7.822044,12.03092,0.6366063,6.660567
0,507,9.752648,10.52606,14.54825,11.59596,7.885611,14.22582,15.09323,16.28479,10.65109,14.61135,14.25151,4.911262,22.97494,10.52898,-1.029459,14.44228,17.63349,7.280051,12.90851
0,508,19.69909,20.61363,23.60523,20.78535,17.92464,23.71418,24.4383,25.7937,18.61693,17.82321,23.70342,14.29479,28.38973,20.36199,8.065048,22.01397,23.21368,16.05099,20.41287
0,509,10.46811,11.79766,16.44558,10.90684,8.281709,14.30829,15.0406,16.37548,10.82573,12.60166,13.57114,7.93769,23.20923,11.85873,-0.3221495,16.39896,18.59827,8.851564,14.23199
0,510,5.91008,7.325523,13.7991,7.042534,3.627497,10.73879,10.81608,12.09411,7.422584,10.89676,9.658252,4.041951,20.11202,7.750469,-5.235983,14.25006,17.71426,5.239876,11.69213
0,511,7.385761,8.534808,13.90355,7.497662,4.689985,11.17702,12.4262,13.43681,7.857252,10.3775,11.49022,4.33159,19.96509,10.13995,-4.117295,15.44995,20.43663,6.647961,13.38477
0,512,12.79513,13.96466,18.16525,12.32379,10.13437,16.49299,17.70556,18.53677,12.04988,13.8073,16.19492,8.314673,22.07163,14.67231,2.007506,19.34653,24.39424,11.66688,17.76548
0,513,18.93617,20.10674,21.96859,18.87457,16.84006,23.04164,23.14256,25.19981,16.2996,12.95936,23.47935,12.0397,22.06302,20.21764,7.875445,21.59436,24.79539,16.08608,20.49518
0,514,12.83215,14.34515,13.44733,12.99213,10.97226,16.42427,16.92759,18.45093,9.610159,4.881476,18.32137,4.372375,14.70572,14.27219,1.781676,13.04277,16.11896,8.897998,12.67026
0,515,8.712018,8.758675,8.283309,8.989177,6.955284,11.59556,13.43424,14.09468,6.137493,3.083156,14.06732,0.08594204,9.624112,11.08898,-2.379128,6.90455,10.15278,3.52519,6.992615
0,516,-3.492322,-2.73761,-2.416529,-2.454554,-5.062469,-0.02304472,1.088188,2.413619,-3.191376,-2.383692,2.055339,-9.466801,3.24464,0.06158967,-13.20922,-3.529641,-0.218228,-7.592177,-3.661196
0,517,4.457191,5.706979,6.210119,5.387458,2.658536,9.008214,9.209885,11.82081,5.476912,8.870038,9.503473,-1.441242,12.6726,9.568744,-4.553503,6.112809,10.69819,1.304454,5.909893
0,518,6.268414,6.297715,6.95056,6.53155,4.316749,9.985077,11.21097,13.25735,5.277902,6.727356,10.27003,-0.9785382,9.65209,10.28031,-3.493904,6.929836,11.15391,2.463518,6.647341
0,519,2.367281,3.41462,2.784586,4.108753,0.7746674,5.911623,7.207041,8.823274,1.837494,2.323224,7.65294,-4.701388,5.013681,5.37166,-8.22418,3.343349,7.667304,-1.438456,3.018895
0,520,3.676566,3.983579,4.078269,5.862691,2.495258,6.864201,7.77355,10.99037,2.240561,2.0929,9.069747,-4.869895,5.984559,6.838708,-5.822781,4.722734,7.722677,0.3166958,4.058859
0,521,7.884825,7.544364,7.139801,9.479641,6.744428,10.48419,11.5908,15.53394,4.986612,2.274788,12.99653,-1.74574,6.245534,12.12224,-1.791912,7.345666,9.505999,3.843216,6.724874
0,522,-6.989235,-7.110604,-7.043554,-5.828006,-8.456935,-4.502439,-2.713351,-0.7850404,-8.252707,-7.923053,-1.193659,-15.84633,-5.062641,-1.655535,-16.1937,-6.733456,-2.249673,-10.60726,-6.767437
0,523,-11.20984,-10.3844,-11.49495,-9.963717,-13.0022,-8.456508,-6.010198,-5.502462,-10.62257,-5.578727,-5.927041,-18.82181,-4.288286,-6.759325,-19.95658,-9.737045,-3.271617,-14.33128,-9.299957
0,524,-5.31471,-5.962761,-5.396214,-4.500409,-6.844297,-3.78954,-0.2745939,1.982304,-5.466783,-2.264183,0.2443195,-13.82544,-1.678161,-1.522726,-14.15494,-6.655326,-2.136012,-9.862137,-6.101418
0,525,2.174763,2.401,0.3535336,3.097761,0.7348844,6.149948,7.408708,10.08608,1.85235,2.529949,9.143762,-7.686018,2.262639,6.707377,-7.290339,-2.412767,2.486746,-4.10272,-0.926043
0,526,0.8853883,2.387943,-2.139486,1.716144,-0.5777108,5.176257,6.136946,8.895658,0.5791574,1.3313,7.866057,-9.333862,-0.4432856,4.887554,-8.217023,-4.430706,1.226298,-5.520725,-2.387806
0,527,8.01334,9.869007,3.740106,8.907622,6.882975,12.29784,13.12899,16.27599,7.178964,5.412157,15.48892,-2.951334,0.8467547,10.68381,-1.226327,-0.6448947,4.438967,0.09070596,2.141475
0,528,5.978128,7.128773,-1.040421,7.134437,5.145448,9.664336,11.17171,15.06811,3.786578,0.4310484,13.26443,-7.001406,-5.05853,7.906789,-3.576091,-5.726464,-2.036749,-3.553297,-2.613131
0,529,-4.911071,-3.143726,-10.93373,-3.19879,-5.763392,-1.777196,0.7408482,3.555195,-5.843623,-4.376967,1.668342,-17.69866,-9.615147,-2.753341,-13.76524,-14.55681,-10.36018,-13.51017,-11.70522
0,530,-3.190161,-2.358725,-9.127468,-0.8851515,-4.134878,0.4239952,2.836783,4.845586,-3.476217,-0.3412245,3.291746,-15.13506,-5.006163,-1.399886,-12.20037,-11.09417,-6.209898,-11.14979,-8.551564
0,531,0.7969783,2.189786,-5.349911,2.352356,-0.5660078,5.653894,7.159582,10.34623,0.1362073,1.964072,7.541615,-11.44515,-0.715633,3.193319,-9.336948,-7.562946,-2.706076,-7.769172,-5.001025
0,532,0.835161,1.690919,-6.132863,1.953853,-0.5066372,3.916492,7.141004,10.815,-0.9559332,0.1744773,7.264591,-12.46775,-3.304036,1.302457,-9.121414,-8.433857,-3.905991,-7.997118,-5.660888
0,533,-8.597485,-7.638905,-14.8711,-7.481724,-10.20678,-5.381577,-2.023763,-0.167086,-9.765798,-6.476522,-2.282055,-21.2795,-9.03726,-8.069066,-18.28189,-15.50107,-9.457171,-16.24439,-12.85717
0,534,-13.71641,-12.10297,-18.13929,-12.11137,-15.43106,-8.868319,-7.299075,-3.897008,-14.24297,-9.527355,-7.414583,-26.09427,-11.41943,-11.31292,-23.27007,-17.52352,-11.24818,-19.91009,-15.73788
0,535,-15.64803,-14.87613,-19.66211,-13.96069,-17.20159,-11.35986,-9.382979,-7.085646,-16.72231,-11.01331,-10.33999,-28.57112,-13.08419,-13.56046,-24.39017,-18.92065,-13.0382,-21.37763,-17.40593
0,536,-19.68422,-18.64338,-22.30176,-17.92514,-21.1945,-15.47691,-13.83865,-10.79624,-19.48365,-13.33359,-13.72447,-30.64829,-13.92066,-18.00072,-27.78323,-21.62869,-15.96272,-24.509,-20.32057
0,537,-15.01334,-14.18545,-16.72989,-13.12436,-16.37103,-11.78651,-9.352291,-6.849392,-14.32211,-7.026575,-8.920309,-25.46923,-8.626076,-14.86733,-22.11477,-16.34701,-10.13194,-19.15111,-14.84042
0,538,-16.02761,-14.32087,-16.13232,-13.06816,-17.04832,-12.23552,-10.56289,-8.279954,-14.79616,-5.130539,-10.07044,-27.22223,-7.772777,-15.22089,-22.20709,-15.63139,-9.192315,-19.11926,-14.47764
0,539,-15.31775,-14.48717,-14.3234,-13.89509,-16.85588,-13.73779,-9.662369,-8.987501,-14.94248,-2.657993,-12.25184,-25.88855,-4.058875,-14.51206,-20.9701,-12.76536,-6.375653,-17.29324,-12.23146
0,540,-12.82535,-12.56973,-9.85249,-12.66007,-14.48011,-11.24089,-7.633857,-6.508316,-12.69697,-1.729226,-10.31013,-22.40748,-2.146818,-11.86342,-17.94675,-10.5183,-5.188948,-14.68388,-10.22804
0,541,-10.64635,-11.00326,-7.645988,-10.36451,-12.24327,-9.063086,-5.28655,-4.367196,-11.17472,-1.172257,-8.564961,-20.36938,-2.518989,-11.84209,-16.23915,-8.753725,-3.978174,-12.85994,-8.612709
0,542,-7.503415,-8.945478,-3.913499,-7.170263,-9.151936,-6.653751,-2.014222,-1.654993,-8.023259,1.682592,-6.152911,-15.77903,0.7128803,-9.497133,-13.85317,-4.905008,-0.8767418,-9.683795,-5.323429
0,543,-7.335707,-9.222904,-3.616647,-7.564063,-8.92892,-7.714469,-2.231805,-1.007283,-8.874455,-0.9170098,-5.727263,-16.34892,0.5660993,-10.59636,-13.569,-5.562943,-2.772268,-9.755351,-6.017038
0,544,-11.19401,-12.32222,-6.287796,-11.16412,-12.67314,-11.27532,-6.430225,-5.621385,-11.41151,-3.930589,-8.31548,-18.63023,-4.374425,-14.34169,-17.06344,-8.920997,-4.978939,-13.06635,-9.066326
0,545,2.34299,0.3232549,4.907825,2.453263,0.9956374,2.529136,7.21605,5.974763,1.051737,6.600732,5.105382,-5.997427,3.633062,-1.513769,-3.635944,2.466018,7.40666,-0.4619996,3.085859
0,546,3.198732,1.367691,4.169295,2.681113,1.908096,2.913233,7.895401,7.892813,0.9600677,5.996887,5.885402,-7.055786,3.818456,0.003420299,-2.162009,1.09279,5.278733,-0.4681927,2.208055
0,547,5.06945,3.189042,4.427017,4.655616,3.853165,4.292934,10.10789,10.11996,2.803041,7.89641,8.09461,-5.965753,4.287993,1.558098,-0.5307195,0.99872,5.364075,0.3304144,2.716676
0,548,7.170274,5.395102,4.133552,6.618264,5.964931,6.46782,12.17367,12.26355,4.030385,6.767153,9.696361,-3.758732,4.979765,3.245641,0.7212376,1.17545,4.187624,1.267898,2.965977
0,549,10.7547,9.75762,5.832018,11.17782,9.961999,11.19824,15.63156,16.77461,6.951179,7.576979,13.24747,-1.081059,3.990494,5.904374,3.794726,2.723595,4.548363,3.747736,4.623487
0,550,10.5725,9.649072,3.642677,11.15589,10.03302,9.872298,15.74611,14.96628,5.297524,4.085446,11.59593,-2.130301,0.6368836,4.589976,2.262188,-0.5786796,-0.9117824,1.536796,1.32985
0,551,-3.929793,-3.887955,-7.918605,-2.902001,-4.765308,-4.225126,1.598575,1.21806,-6.151933,-2.856012,-1.796628,-14.24327,-6.605424,-8.269217,-11.91393,-11.17077,-9.549761,-11.15281,-9.602988
0,552,-5.654751,-5.012796,-6.389364,-4.808334,-6.747917,-6.705688,-0.7610824,-0.1517793,-5.682116,1.17292,-2.615702,-13.51464,-1.514608,-8.91352,-11.70621,-7.718471,-3.830508,-9.592059,-6.490261
0,553,-0.6245962,-0.8779924,-1.077571,-0.7751984,-1.692234,-2.533898,3.545487,3.895726,-1.45541,4.072677,1.423611,-7.814078,0.1804406,-4.404598,-5.367769,-2.830926,0.888242,-3.967471,-1.545187
0,554,-2.388982,-4.148807,-2.164398,-2.775736,-3.540825,-3.739721,1.609476,1.051399,-2.933972,2.866139,-0.1534369,-8.872227,-0.3497629,-5.275401,-6.437332,-3.467881,0.9471228,-4.971354,-2.308249
0,555,-2.211061,-2.901582,-1.612757,-1.696632,-3.079962,-3.509865,1.476803,2.175063,-2.726123,2.199212,1.254721,-9.502971,0.6336892,-5.142875,-6.62889,-3.068681,0.7293512,-4.73176,-2.082795
0,556,-5.478227,-6.236804,-4.588567,-4.456604,-6.356906,-7.025265,-1.605618,-0.8131069,-6.029747,-1.115441,-2.283171,-12.40278,-2.305238,-8.542959,-10.87978,-5.382384,-2.122958,-7.927255,-4.971361
0,557,-4.024097,-5.820727,-3.243511,-3.255054,-5.193566,-5.445757,0.1612836,0.4590937,-4.518826,0.4670443,-0.8813282,-10.18334,-0.3305795,-7.366323,-9.904359,-2.979252,1.034824,-6.19635,-2.693726
0,558,1.388546,-0.8302889,1.042783,1.883961,0.1678243,0.4294046,5.617663,5.547815,0.9206658,4.330434,5.201838,-4.378277,2.818431,-2.397467,-4.639843,1.025136,5.689713,-1.404807,1.898074
0,559,-5.712994,-8.022612,-3.955325,-5.399873,-7.323075,-6.493396,-0.7672974,-1.118315,-4.666028,1.215085,-1.416217,-10.24645,-1.184592,-9.223637,-12.31823,-4.260388,1.764526,-8.003999,-3.539208
0,560,-19.22203,-21.44123,-13.90434,-18.7789,-20.9897,-20.19945,-14.40936,-13.83787,-16.16045,-5.746651,-15.88074,-21.11266,-6.473172,-21.9967,-24.74778,-13.23699,-7.660469,-19.22728,-13.73443
0,561,-16.19151,-17.62027,-10.40123,-15.79132,-17.76037,-17.21038,-12.32975,-10.9885,-12.43495,-2.446574,-12.69161,-16.65366,-1.42498,-17.29001,-20.54661,-9.622085,-4.631189,-15.37324,-10.23501
0,562,-12.21164,-14.76163,-6.321468,-11.97004,-13.5756,-14.45964,-8.509868,-8.818623,-9.327055,-1.000692,-9.868652,-12.28872,0.4226327,-12.77582,-17.24603,-7.028978,-3.813213,-12.32102,-8.028429
0,563,-11.33255,-13.30701,-4.507997,-11.42649,-12.66353,-13.68122,-8.057997,-6.941813,-8.107458,0.08007442,-8.145576,-11.62222,0.9329849,-11.10475,-15.56907,-6.080868,-2.449548,-11.01571,-6.837124
0,564,-4.894835,-6.430607,0.5960281,-4.410316,-5.777185,-7.396105,-1.821869,-0.3795078,-2.610548,3.600544,-1.052984,-7.150934,1.366174,-5.933492,-9.033975,-2.178322,1.34697,-5.599832,-2.275761
0,565,0.5138509,-1.567365,4.060263,0.9295155,-0.3456722,-3.127491,4.189961,4.285461,0.8892775,3.89228,4.423723,-3.613253,1.331058,-2.62975,-5.744371,0.05789463,2.874704,-2.364377,0.3528721
0,566,3.985717,1.129842,4.694004,2.375985,2.72689,-1.140242,7.716276,6.643155,1.646753,1.449599,6.239382,-1.518138,-1.591648,0.3440416,-2.731925,0.5787163,3.2143,-0.2402408,1.476475
0,567,2.376557,0.02219244,3.00016,0.825555,1.333511,-1.108001,5.748682,5.128657,-0.4070025,-1.174732,3.836813,-3.641501,-4.400645,-1.058615,-3.588967,-1.75165,-0.2356854,-1.982052,-0.9898793
0,568,-2.265682,-4.045447,-1.106467,-4.207304,-3.755709,-5.814904,1.586047,0.8545387,-4.134822,-3.941492,-0.2862112,-7.268786,-5.025253,-4.394026,-9.278258,-5.291599,-3.018825,-6.522823,-4.628053
0,569,3.025574,0.8185472,4.498166,1.257548,1.673749,-1.184915,6.440387,4.772344,0.6422867,0.8106809,4.930423,-2.448582,0.04599594,1.282359,-3.277947,1.052318,3.84551,-0.3579493,1.618213
0,570,9.049246,6.60529,10.11762,7.707094,7.731126,5.261075,12.13219,11.27034,5.34176,4.542588,10.62257,2.371585,3.958842,6.761402,2.837712,8.735072,11.77557,6.652078,8.84284
0,571,6.364791,4.240468,7.813093,4.107658,4.962194,1.393393,9.025006,8.224304,2.071926,-0.4016222,7.739929,0.07230767,-2.006199,3.329068,0.410916,5.639894,8.705208,4.113621,5.923122
0,572,4.263187,1.733093,6.221003,0.1145755,2.463398,-1.641199,6.757459,6.267653,-1.272994,-4.266334,5.020819,-3.052873,-4.584105,1.095511,-0.9422873,3.117771,6.26394,2.16608,3.632473
0,573,-0.6340443,-3.993915,0.5575699,-3.666257,-2.086277,-5.525623,1.610469,2.402705,-6.864201,-9.950916,-1.017331,-8.345683,-10.11769,-4.284052,-5.690897,-0.9800867,0.2747124,-2.436921,-1.395215
0,574,-1.025053,-3.615489,-0.4951132,-3.746452,-2.577075,-6.108249,1.412422,2.590481,-6.425625,-8.142459,-1.067906,-8.300892,-9.576468,-3.926032,-6.142351,-0.6643555,1.761889,-2.49975,-0.8670907
0,575,-2.224336,-3.487992,-0.5999821,-4.398264,-3.692583,-6.599546,-0.07811031,0.954827,-6.431146,-5.90629,-1.435373,-9.391195,-6.914605,-4.252489,-6.074105,0.1587031,4.0426,-2.262426,0.1016808
0,576,-0.2301847,-3.157819,1.939393,-4.530435,-2.401234,-5.725935,2.333364,0.7334955,-5.017978,-4.112827,0.4459756,-7.371625,-3.702168,-2.695716,-3.688773,2.39153,8.438742,0.05282911,2.977197
0,577,5.807727,2.408642,7.725767,1.66848,3.801194,-0.07157659,8.432196,6.490185,-0.3249751,-0.6828928,5.753513,-2.631639,-1.545288,2.283321,1.825576,7.485255,12.75691,5.478973,7.913797
0,578,7.84049,4.441469,9.661034,3.996511,6.167335,1.90787,9.561158,9.637394,1.121176,-1.641535,8.68284,-1.09586,-3.030808,3.954833,4.591014,9.37693,14.16416,7.968933,9.785817
0,579,1.364056,-1.624686,4.142412,-2.393266,-0.1102025,-5.308335,2.408048,1.969419,-5.233855,-7.462889,1.826603,-7.025244,-7.338178,-2.276831,-0.7719514,4.181839,8.426186,2.56795,4.254858
0,580,-10.76027,-13.9965,-6.31599,-14.46387,-12.32431,-18.53358,-9.65219,-11.11665,-16.0719,-14.54461,-10.91196,-17.87235,-13.93044,-13.39141,-12.01236,-5.368944,-0.6524495,-8.198178,-5.750434
0,581,-0.4838389,-3.311891,4.718102,-4.951211,-2.023584,-8.408172,0.5360736,-1.255315,-5.843757,-4.249495,-1.545319,-7.407631,-3.699054,-2.468845,-1.366483,3.39722,7.235088,1.411453,3.196419
0,582,4.441265,1.352576,8.184999,-0.2441194,3.136695,-2.695822,5.667363,3.210724,-3.244267,-5.036475,3.272829,-5.46403,-3.134064,-0.4764169,2.850116,4.414357,6.47446,4.219072,4.673763
0,583,4.292741,1.367316,6.260159,0.2153559,3.006063,-2.11397,5.884527,3.838267,-3.42921,-5.726153,2.918053,-5.483829,-5.054479,-1.108387,1.77252,3.591319,5.463778,3.378965,3.846879
0,584,1.201446,-2.114656,1.766787,-3.656098,-0.2865599,-6.319016,3.241475,0.8741691,-6.817351,-8.830871,-0.4188167,-9.137015,-9.02002,-4.220105,-1.568761,-1.333696,0.755907,-0.7375357,-0.5211942
0,585,-9.943361,-12.45336,-7.069491,-14.44443,-11.38866,-16.72666,-7.697922,-9.821959,-15.99199,-13.54755,-12.73271,-18.75686,-15.80872,-13.95616,-11.7418,-10.63042,-8.779862,-11.0086,-10.35652
0,586,-10.56874,-13.79259,-6.401406,-15.12007,-11.75757,-18.31389,-8.996961,-10.28834,-15.80611,-13.28347,-12.21888,-18.56524,-13.69994,-14.75012,-11.06779,-11.07343,-9.786596,-11.04956,-10.73881
0,587,-12.9477,-17.34215,-8.773004,-17.56842,-14.09513,-21.56299,-11.34749,-13.56453,-18.44975,-14.22471,-15.02495,-21.61069,-13.33585,-17.60718,-12.53548,-12.90816,-11.63913,-12.97432,-12.62212
0,588,-12.90868,-17.51668,-7.66721,-16.97695,-13.90655,-21.62723,-11.39627,-13.51732,-18.01746,-12.16147,-15.85812,-21.08571,-12.6187,-16.69068,-12.18201,-11.4155,-10.49569,-12.24786,-11.72661
0,589,-6.149088,-10.45575,-0.7235702,-10.63231,-7.181486,-13.9852,-5.346415,-6.096703,-12.04571,-8.781286,-9.053766,-13.98739,-6.78586,-10.42389,-5.154766,-4.163743,-3.971656,-4.930346,-4.747759
0,590,5.650015,1.018697,10.30875,0.8846292,4.434725,-2.618814,7.196957,4.586957,-2.597578,-2.549069,1.072891,-3.106046,0.9045249,-0.7558404,3.69394,5.829263,4.205559,4.968704,4.752617
0,591,-4.315311,-9.700861,0.3296634,-9.512654,-5.413275,-12.47515,-3.055824,-6.722073,-12.70391,-13.04527,-8.622643,-13.41026,-9.953869,-10.85348,-5.145923,-5.065471,-6.528822,-5.024304,-5.749134
0,592,-10.51581,-15.86537,-4.933354,-15.44133,-11.66173,-18.67247,-9.61338,-13.2729,-18.214,-15.96855,-15.8197,-18.33834,-11.82525,-16.16425,-10.18666,-7.955853,-9.187992,-9.295947,-9.361101
0,593,-8.00351,-12.51243,-3.194779,-14.33723,-9.796512,-17.14974,-6.441813,-10.2706,-16.20477,-12.83904,-14.64091,-15.99486,-10.12397,-13.28645,-8.331428,-5.475774,-5.487526,-7.011176,-6.571722
0,594,-9.122043,-13.98583,-2.758132,-15.95772,-11.16429,-17.89835,-8.134716,-10.44196,-16.44399,-11.80801,-14.80571,-16.19711,-8.017137,-13.56501,-7.785859,-3.524411,-1.857578,-5.944389,-4.703062
0,595,3.367253,-2.779576,9.715085,-3.355567,1.626314,-6.601022,4.085078,-0.3291951,-5.429538,-2.668336,-3.025239,-4.43267,1.028862,-2.243193,4.588365,8.012466,8.936059,6.155243,6.743774
0,596,13.13581,6.444132,17.37652,6.424735,11.65638,2.631657,13.60668,10.07104,2.209619,0.4749472,6.852685,3.583857,2.619358,6.087085,13.37641,14.7582,14.50834,14.38002,13.76584
0,597,6.828321,0.1068883,9.289144,1.08615,5.502747,-2.811826,7.591138,4.568972,-4.260647,-6.160953,0.6166363,-3.465865,-3.913833,0.0900938,6.26978,7.865736,6.945008,7.38464,6.689988
0,598,8.805565,4.498463,11.4385,3.291521,7.788273,0.2066955,8.658649,6.313803,-1.249947,-2.990811,3.452238,-1.112982,-0.4742716,3.310187,10.04789,9.739855,9.281786,10.11828,9.121823
0,599,8.185674,3.037107,8.629686,1.16128,6.830739,-2.119699,8.283078,6.326462,-3.281566,-8.394473,3.410504,-2.632893,-4.727759,2.26549,8.167555,5.781902,4.931266,7.626344,5.882273
0,600,3.061934,-3.633279,2.953298,-3.127537,1.742865,-7.56734,3.519099,0.6276615,-7.272015,-9.294965,-2.518242,-6.135203,-4.983562,-2.837615,3.316177,2.396953,1.427144,3.137088,1.984934
0,601,12.52594,5.57827,11.37934,4.317181,10.47806,2.185255,13.75829,8.729478,1.325978,-0.5491264,5.263049,3.425585,4.250975,6.467041,12.33476,10.56125,10.6151,11.7636,10.73803
0,602,13.53935,7.021814,11.7394,5.829753,11.62077,4.193966,14.84276,9.882041,1.764147,-2.165988,7.663116,2.795153,3.515792,7.798625,12.44239,10.31075,10.43652,11.92953,10.75528
0,603,7.612435,1.538947,7.634285,1.108709,6.179373,-2.045562,8.582528,5.415674,-2.944549,-5.64767,3.30805,-3.48509,-1.091354,2.04658,7.147753,5.00176,4.755906,6.463463,5.294092
0,604,-3.092703,-9.093002,-0.4309241,-9.984613,-4.956764,-13.54233,-1.645539,-6.210696,-12.41526,-10.13302,-8.617286,-12.91218,-4.304001,-8.039457,-3.004826,-1.862615,-1.115052,-2.466521,-2.241467
0,605,1.867973,-4.106081,3.567877,-5.668239,-0.3414593,-9.048651,3.3579,-1.103579,-7.67027,-4.876774,-3.890977,-7.861682,2.434438,-2.41388,2.107141,3.877911,5.568414,2.987989,3.654338
0,606,12.93609,7.940952,14.92395,6.231701,11.26991,1.772797,14.15006,9.769093,2.798156,2.552418,7.839352,2.546625,8.901754,6.704141,12.27685,12.58118,12.75131,12.7665,12.50774
0,607,5.111767,0.5011426,6.881412,-1.281539,3.479689,-4.80297,5.760385,2.660161,-4.361912,-5.601599,-0.029672,-3.186939,1.361402,-1.008773,4.777841,6.116318,5.773353,5.81688,5.57552
0,608,-8.854481,-13.76511,-4.146307,-14.93869,-10.90513,-18.91161,-7.39775,-12.93696,-15.59316,-10.16331,-14.43462,-14.92858,-2.268745,-12.18812,-8.906135,-3.273,-1.647202,-6.284394,-4.484164
0,609,-1.064883,-6.173015,4.934922,-8.575883,-3.772609,-11.57307,1.009941,-4.0373,-7.372247,-2.406806,-6.506686,-5.675839,5.895837,-4.244481,-2.553884,4.517401,6.771925,1.010762,3.370994
0,610,-4.487294,-8.853422,2.995625,-11.48148,-6.935721,-13.87185,-3.280669,-7.082794,-9.886713,-5.206273,-9.582053,-7.79619,2.21498,-5.995041,-4.968294,2.736715,4.865878,-1.154803,1.154076
0,611,5.050167,-0.6471539,12.45777,-3.045121,2.795441,-5.446308,5.382289,2.521093,-0.6540125,2.882047,0.3357872,1.635706,9.683657,3.846561,6.655704,10.47594,12.42036,8.402579,9.576869
0,612,4.634664,-1.547089,10.27821,-4.106565,2.50107,-7.628998,4.648952,0.3253138,-2.404231,-1.329968,-0.8473666,1.16377,7.202323,2.229548,6.09869,7.713877,8.209851,6.955155,7.070485
0,613,-7.481911,-13.09767,0.07412299,-15.10267,-9.359602,-19.7251,-7.531875,-12.26377,-13.85759,-10.08485,-13.32864,-11.19911,-2.640059,-9.037488,-5.568842,-1.913336,-1.412106,-3.955737,-3.284106
0,614,-12.03042,-18.80989,-2.438236,-19.65543,-14.12317,-25.10698,-11.55968,-18.19753,-17.51453,-10.6784,-18.05945,-15.0108,-5.831034,-13.95978,-9.820156,-4.043747,-1.565851,-7.353086,-5.554211
0,615,-5.614663,-12.02104,5.013921,-13.57399,-7.913209,-17.26444,-5.465827,-10.44249,-9.789791,-3.631445,-11.46284,-5.743854,-1.205564,-7.088829,-3.14022,3.663928,7.005338,-0.07465497,2.06308
0,616,-2.982043,-8.470392,8.40652,-9.945919,-4.711956,-14.03068,-4.015738,-7.134634,-6.714761,-1.821715,-8.512849,-2.149486,0.0649225,-4.136251,0.6466409,7.126429,9.3157,3.547736,5.0972
0,617,-4.135829,-10.51031,8.120366,-12.23748,-6.191329,-16.06003,-5.448115,-7.85693,-8.672112,-2.788493,-11.70043,-2.921755,1.519374,-3.483491,-0.02791965,7.728849,8.77761,3.309393,4.798004
0,618,-4.618621,-12.01362,11.52824,-13.2442,-6.67405,-18.2545,-5.847577,-9.6166,-8.236298,0.6113819,-12.66413,-2.594857,5.16444,-3.88331,0.3081849,8.588126,9.393493,3.540609,5.277907
0,619,0.07293873,-6.670812,18.53894,-8.01791,-1.633236,-14.27642,-2.304634,-5.127248,-2.704251,5.560666,-6.860106,3.538712,11.51556,0.8174556,6.174172,15.46304,16.13766,9.954733,11.78692
0,620,3.950141,-3.148587,21.49212,-4.795561,2.143028,-10.34833,1.144661,-2.313917,-1.243376,4.06143,-3.319752,5.358109,13.2093,4.57937,9.901522,19.11924,19.45522,13.90413,15.3306
0,621,11.46208,3.561455,27.68651,1.162977,9.644047,-3.639133,8.283887,4.242784,4.008159,6.984062,3.338842,10.73602,17.04746,11.18129,18.36189,23.6727,23.22598,20.46329,20.54272
0,622,16.30129,7.662387,31.65401,6.085246,14.78454,-0.6425899,12.76097,8.248132,7.930872,8.012134,8.393994,15.40395,18.46029,16.21715,22.39161,26.45462,24.63245,24.18451,23.34904
0,623,16.43654,8.022475,30.55561,6.878009,15.29219,-0.5282586,12.60285,7.911472,7.594306,6.211066,7.783693,15.68634,15.26114,16.39221,22.25488,25.32467,22.17189,23.65734,22.04785
0,624,14.40786,6.506771,27.51791,3.91076,13.10954,-2.561502,10.97687,6.038609,4.9052,1.587357,6.458343,12.25891,10.04236,14.14207,19.41321,19.94002,16.85329,19.7832,17.55437
0,625,6.07476,-1.728512,18.99669,-4.5881,4.855365,-10.392,2.901698,-1.374316,-2.984857,-5.870596,-1.528688,3.519,1.029445,5.020387,11.40805,9.782805,6.330368,10.55723,7.855226
0,626,12.77405,4.996673,24.43946,1.930975,11.4907,-3.578572,10.10065,5.045166,3.506709,1.029841,4.099948,10.23054,6.196496,10.89261,17.75085,14.98692,11.44168,16.30754,13.37477
0,627,18.83465,11.09541,28.14942,8.32817,17.63421,3.201394,16.54259,12.19919,8.5188,3.051854,11.01922,14.69349,7.504047,16.03379,22.27381,18.14181,14.19831,20.5062,17.02477
0,628,16.19973,9.975309,23.61987,8.053159,15.66372,1.9174,14.12359,9.781868,5.444114,-1.134497,8.833126,9.974192,1.592237,13.72054,18.15984,13.88633,8.783043,16.49774,12.61008
0,629,12.65068,7.09208,19.57204,4.18732,12.05114,-2.566678,10.21575,6.671267,1.91411,-2.674787,4.71284,6.158029,0.9078844,10.34807,16.08131,11.59028,6.864464,14.09776,10.3726
0,630,4.361426,-1.853468,11.49897,-4.578624,3.5952,-11.72608,2.080482,-1.946853,-6.517356,-10.21113,-3.984252,-2.076466,-6.349505,1.382084,8.03186,3.827485,-0.7527791,6.101571,2.541328
0,631,3.743037,-2.254436,10.3735,-5.404861,2.556489,-11.35608,2.267102,-2.653766,-6.953497,-8.224696,-4.983953,-3.394958,-5.379948,0.9725913,7.282141,4.242405,1.62944,5.791575,3.217027
0,632,3.483409,-1.22204,9.540312,-6.246528,2.226242,-10.1886,1.958254,-2.576828,-6.548233,-8.324231,-5.106861,-3.011617,-8.1961,1.036403,7.595089,2.338329,0.4434314,5.013674,2.075289
0,633,-6.058682,-11.63686,1.870248,-14.46064,-7.188145,-18.96756,-7.10199,-11.512,-13.95658,-11.95836,-14.72982,-10.66099,-12.46726,-8.371902,-1.955787,-4.700196,-6.861728,-3.725003,-5.79364
0,634,-4.596897,-10.51462,3.123594,-13.52782,-6.294404,-17.66728,-4.632925,-11.14592,-11.58748,-7.430749,-13.09248,-8.276941,-6.250961,-6.861834,-1.39005,-2.500848,-2.87758,-2.382777,-3.255285
0,635,2.100795,-3.059979,9.170897,-6.338553,0.7588874,-11.16252,1.759757,-3.921045,-5.507013,-3.446847,-6.478459,-1.947577,-2.02778,-1.007895,4.765943,2.485865,0.3750764,3.384819,1.665608
